;Freq(Hz)	Relative Amplitude (dB): Left
19502.9297	-72.395454
19505.8594	-72.417427
19508.7891	-72.418060
19511.7188	-72.418228
19514.6484	-72.440498
19517.5781	-72.459084
19520.5078	-72.471138
19523.4375	-72.501526
19526.3672	-72.531738
19529.2969	-72.552513
19532.2266	-72.569656
19535.1562	-72.573402
19538.0859	-72.573570
19541.0156	-72.581367
19543.9453	-72.587349
19546.8750	-72.583336
19549.8047	-72.588280
19552.7344	-72.598816
19555.6641	-72.603271
19558.5938	-72.616264
19561.5234	-72.631859
19564.4531	-72.642174
19567.3828	-72.653282
19570.3125	-72.663803
19573.2422	-72.677414
19576.1719	-72.692101
19579.1016	-72.694458
19582.0312	-72.686050
19584.9609	-72.687790
19587.8906	-72.700127
19590.8203	-72.714386
19593.7500	-72.729736
19596.6797	-72.748344
19599.6094	-72.762405
19602.5391	-72.769432
19605.4688	-72.787979
19608.3984	-72.814758
19611.3281	-72.830894
19614.2578	-72.835136
19617.1875	-72.840836
19620.1172	-72.856560
19623.0469	-72.865913
19625.9766	-72.872169
19628.9062	-72.900955
19631.8359	-72.933357
19634.7656	-72.943359
19637.6953	-72.951408
19640.6250	-72.972313
19643.5547	-72.991188
19646.4844	-72.997444
19649.4141	-73.007469
19652.3438	-73.030182
19655.2734	-73.052895
19658.2031	-73.065208
19661.1328	-73.074570
19664.0625	-73.097092
19666.9922	-73.116844
19669.9219	-73.123634
19672.8516	-73.135292
19675.7812	-73.151260
19678.7109	-73.167213
19681.6406	-73.181244
19684.5703	-73.190109
19687.5000	-73.206757
19690.4297	-73.227661
19693.3594	-73.230583
19696.2891	-73.229599
19699.2188	-73.246193
19702.1484	-73.273590
19705.0781	-73.289062
19708.0078	-73.289940
19710.9375	-73.305786
19713.8672	-73.338165
19716.7969	-73.361435
19719.7266	-73.371292
19722.6562	-73.384232
19725.5859	-73.398247
19728.5156	-73.413467
19731.4453	-73.431442
19734.3750	-73.443192
19737.3047	-73.462402
19740.2344	-73.479324
19743.1641	-73.489540
19746.0938	-73.511978
19749.0234	-73.543213
19751.9531	-73.569977
19754.8828	-73.584137
19757.8125	-73.599525
19760.7422	-73.630333
19763.6719	-73.656944
19766.6016	-73.674019
19769.5312	-73.695099
19772.4609	-73.717567
19775.3906	-73.738998
19778.3203	-73.762276
19781.2500	-73.783371
19784.1797	-73.801208
19787.1094	-73.821350
19790.0391	-73.847275
19792.9688	-73.875435
19795.8984	-73.892181
19798.8281	-73.897430
19801.7578	-73.908768
19804.6875	-73.926285
19807.6172	-73.946785
19810.5469	-73.970222
19813.4766	-73.987038
19816.4062	-73.995308
19819.3359	-74.012093
19822.2656	-74.023468
19825.1953	-74.033203
19828.1250	-74.052345
19831.0547	-74.066727
19833.9844	-74.084221
19836.9141	-74.119942
19839.8438	-74.155289
19842.7734	-74.163933
19845.7031	-74.168678
19848.6328	-74.191917
19851.5625	-74.218399
19854.4922	-74.236305
19857.4219	-74.253357
19860.3516	-74.282578
19863.2812	-74.310699
19866.2109	-74.325478
19869.1406	-74.346077
19872.0703	-74.367493
19875.0000	-74.383194
19877.9297	-74.404762
19880.8594	-74.428169
19883.7891	-74.461197
19886.7188	-74.490761
19889.6484	-74.502174
19892.5781	-74.518654
19895.5078	-74.548950
19898.4375	-74.582047
19901.3672	-74.607445
19904.2969	-74.633789
19907.2266	-74.664604
19910.1562	-74.692062
19913.0859	-74.716995
19916.0156	-74.747108
19918.9453	-74.781837
19921.8750	-74.807373
19924.8047	-74.828949
19927.7344	-74.854813
19930.6641	-74.883598
19933.5938	-74.913399
19936.5234	-74.942947
19939.4531	-74.973427
19942.3828	-74.998344
19945.3125	-75.022308
19948.2422	-75.048439
19951.1719	-75.073593
19954.1016	-75.107468
19957.0312	-75.142754
19959.9609	-75.177673
19962.8906	-75.211990
19965.8203	-75.238655
19968.7500	-75.272903
19971.6797	-75.317017
19974.6094	-75.355431
19977.5391	-75.388191
19980.4688	-75.423325
19983.3984	-75.454781
19986.3281	-75.478958
19989.2578	-75.504677
19992.1875	-75.539772
19995.1172	-75.581245
19998.0469	-75.618851
20000.9766	-75.649620
20003.9062	-75.685280
20006.8359	-75.727943
20009.7656	-75.762917
20012.6953	-75.793510
20015.6250	-75.828522
20018.5547	-75.874451
20021.4844	-75.920471
20024.4141	-75.963066
20027.3438	-76.013687
20030.2734	-76.050705
20033.2031	-76.089897
20036.1328	-76.149605
20039.0625	-76.202423
20041.9922	-76.246140
20044.9219	-76.291725
20047.8516	-76.339165
20050.7812	-76.384048
20053.7109	-76.430527
20056.6406	-76.470955
20059.5703	-76.506996
20062.5000	-76.556816
20065.4297	-76.599182
20068.3594	-76.630295
20071.2891	-76.678658
20074.2188	-76.737350
20077.1484	-76.792130
20080.0781	-76.840897
20083.0078	-76.877197
20085.9375	-76.907127
20088.8672	-76.948647
20091.7969	-77.009430
20094.7266	-77.067047
20097.6562	-77.125748
20100.5859	-77.193558
20103.5156	-77.242523
20106.4453	-77.276001
20109.3750	-77.325813
20112.3047	-77.394821
20115.2344	-77.449326
20118.1641	-77.507912
20121.0938	-77.601692
20124.0234	-77.673737
20126.9531	-77.707191
20129.8828	-77.759949
20132.8125	-77.837486
20135.7422	-77.920792
20138.6719	-77.999748
20141.6016	-78.060104
20144.5312	-78.114204
20147.4609	-78.196472
20150.3906	-78.291061
20153.3203	-78.358971
20156.2500	-78.429810
20159.1797	-78.510269
20162.1094	-78.591759
20165.0391	-78.686729
20167.9688	-78.767441
20170.8984	-78.839653
20173.8281	-78.933075
20176.7578	-79.038330
20179.6875	-79.147835
20182.6172	-79.251213
20185.5469	-79.354263
20188.4766	-79.449638
20191.4062	-79.517822
20194.3359	-79.606911
20197.2656	-79.724602
20200.1953	-79.842087
20203.1250	-79.967758
20206.0547	-80.075096
20208.9844	-80.169624
20211.9141	-80.298149
20214.8438	-80.443352
20217.7734	-80.562042
20220.7031	-80.671715
20223.6328	-80.809464
20226.5625	-80.955757
20229.4922	-81.098396
20232.4219	-81.255310
20235.3516	-81.406952
20238.2812	-81.558289
20241.2109	-81.705132
20244.1406	-81.869308
20247.0703	-82.048080
20250.0000	-82.232140
20252.9297	-82.432114
20255.8594	-82.612656
20258.7891	-82.775833
20261.7188	-82.937950
20264.6484	-83.116951
20267.5781	-83.311523
20270.5078	-83.496651
20273.4375	-83.703445
20276.3672	-83.950256
20279.2969	-84.209061
20282.2266	-84.482635
20285.1562	-84.767647
20288.0859	-85.057938
20291.0156	-85.383980
20293.9453	-85.706955
20296.8750	-85.977486
20299.8047	-86.297813
20302.7344	-86.716515
20305.6641	-87.153267
20308.5938	-87.547447
20311.5234	-87.976685
20314.4531	-88.480667
20317.3828	-88.966736
20320.3125	-89.474510
20323.2422	-90.091888
20326.1719	-90.788528
20329.1016	-91.509682
20332.0312	-92.315102
20334.9609	-93.195206
20337.8906	-94.084396
20340.8203	-95.066971
20343.7500	-96.235458
20346.6797	-97.569946
20349.6094	-98.933167
20352.5391	-100.215401
20355.4688	-100.969505
20358.3984	-100.759544
20361.3281	-99.779388
20364.2578	-98.529404
20367.1875	-97.197418
20370.1172	-95.767952
20373.0469	-94.401817
20375.9766	-93.211983
20378.9062	-92.190392
20381.8359	-91.292664
20384.7656	-90.351288
20387.6953	-89.412025
20390.6250	-88.561996
20393.5547	-87.771996
20396.4844	-87.044647
20399.4141	-86.363716
20402.3438	-85.723488
20405.2734	-85.130035
20408.2031	-84.566711
20411.1328	-84.014793
20414.0625	-83.473648
20416.9922	-82.976974
20419.9219	-82.513420
20422.8516	-82.020195
20425.7812	-81.519020
20428.7109	-81.057617
20431.6406	-80.633400
20434.5703	-80.216522
20437.5000	-79.778633
20440.4297	-79.336533
20443.3594	-78.907684
20446.2891	-78.490150
20449.2188	-78.066299
20452.1484	-77.640358
20455.0781	-77.243217
20458.0078	-76.872169
20460.9375	-76.498138
20463.8672	-76.118904
20466.7969	-75.747231
20469.7266	-75.393631
20472.6562	-75.047607
20475.5859	-74.690514
20478.5156	-74.336197
20481.4453	-73.993927
20484.3750	-73.659195
20487.3047	-73.315628
20490.2344	-72.962929
20493.1641	-72.610069
20496.0938	-72.271820
20499.0234	-71.933609
20501.9531	-71.584312
20504.8828	-71.253777
20507.8125	-70.929871
20510.7422	-70.594887
20513.6719	-70.257149
20516.6016	-69.920631
20519.5312	-69.581146
20522.4609	-69.234612
20525.3906	-68.882095
20528.3203	-68.519821
20531.2500	-68.157875
20534.1797	-67.810020
20537.1094	-67.463844
20540.0391	-67.101166
20542.9688	-66.731506
20545.8984	-66.370750
20548.8281	-66.008392
20551.7578	-65.636292
20554.6875	-65.260582
20557.6172	-64.874924
20560.5469	-64.477547
20563.4766	-64.076836
20566.4062	-63.677105
20569.3359	-63.272095
20572.2656	-62.848175
20575.1953	-62.407593
20578.1250	-61.961494
20581.0547	-61.507599
20583.9844	-61.043411
20586.9141	-60.568981
20589.8438	-60.073509
20592.7734	-59.558430
20595.7031	-59.031597
20598.6328	-58.486736
20601.5625	-57.920963
20604.4922	-57.334557
20607.4219	-56.716972
20610.3516	-56.064919
20613.2812	-55.381424
20616.2109	-54.665417
20619.1406	-53.912239
20622.0703	-53.120617
20625.0000	-52.284538
20627.9297	-51.399082
20630.8594	-50.469261
20633.7891	-49.503754
20636.7188	-48.519264
20639.6484	-47.541569
20642.5781	-46.624313
20645.5078	-45.853767
20648.4375	-45.318672
20651.3672	-45.079910
20654.2969	-45.207649
20657.2266	-45.664528
20660.1562	-46.315304
20663.0859	-47.081444
20666.0156	-47.904976
20668.9453	-48.727699
20671.8750	-49.511341
20674.8047	-50.250694
20677.7344	-50.949257
20680.6641	-51.610924
20683.5938	-52.228447
20686.5234	-52.797062
20689.4531	-53.326263
20692.3828	-53.826561
20695.3125	-54.299397
20698.2422	-54.745819
20701.1719	-55.160316
20704.1016	-55.542175
20707.0312	-55.901096
20709.9609	-56.244198
20712.8906	-56.571835
20715.8203	-56.881001
20718.7500	-57.177544
20721.6797	-57.460014
20724.6094	-57.731583
20727.5391	-57.996407
20730.4688	-58.250542
20733.3984	-58.493217
20736.3281	-58.725136
20739.2578	-58.936375
20742.1875	-59.132481
20745.1172	-59.330303
20748.0469	-59.520016
20750.9766	-59.701351
20753.9062	-59.878307
20756.8359	-60.051144
20759.7656	-60.213730
20762.6953	-60.367828
20765.6250	-60.520947
20768.5547	-60.674435
20771.4844	-60.822308
20774.4141	-60.957333
20777.3438	-61.080402
20780.2734	-61.200245
20783.2031	-61.318989
20786.1328	-61.435818
20789.0625	-61.546562
20791.9922	-61.653843
20794.9219	-61.761990
20797.8516	-61.865707
20800.7812	-61.966331
20803.7109	-62.066338
20806.6406	-62.162029
20809.5703	-62.250828
20812.5000	-62.342789
20815.4297	-62.438980
20818.3594	-62.531605
20821.2891	-62.620163
20824.2188	-62.710018
20827.1484	-62.803032
20830.0781	-62.891468
20833.0078	-62.981155
20835.9375	-63.076481
20838.8672	-63.167133
20841.7969	-63.255447
20844.7266	-63.346943
20847.6562	-63.437534
20850.5859	-63.522900
20853.5156	-63.603718
20856.4453	-63.689560
20859.3750	-63.777374
20862.3047	-63.861069
20865.2344	-63.944736
20868.1641	-64.029068
20871.0938	-64.111320
20874.0234	-64.194153
20876.9531	-64.282494
20879.8828	-64.366150
20882.8125	-64.443420
20885.7422	-64.517815
20888.6719	-64.588860
20891.6016	-64.664833
20894.5312	-64.743340
20897.4609	-64.809105
20900.3906	-64.868828
20903.3203	-64.934929
20906.2500	-65.003967
20909.1797	-65.082542
20912.1094	-65.161720
20915.0391	-65.213303
20917.9688	-65.259956
20920.8984	-65.314468
20923.8281	-65.371292
20926.7578	-65.421722
20929.6875	-65.474648
20932.6172	-65.530205
20935.5469	-65.578659
20938.4766	-65.635292
20941.4062	-65.693069
20944.3359	-65.735031
20947.2656	-65.777908
20950.1953	-65.824432
20953.1250	-65.871033
20956.0547	-65.922920
20958.9844	-65.968887
20961.9141	-66.010422
20964.8438	-66.056610
20967.7734	-66.097244
20970.7031	-66.130379
20973.6328	-66.169632
20976.5625	-66.213486
20979.4922	-66.254807
20982.4219	-66.303612
20985.3516	-66.361183
20988.2812	-66.409668
20991.2109	-66.442184
20994.1406	-66.472084
20997.0703	-66.511818
21000.0000	-66.556786
21002.9297	-66.597565
21005.8594	-66.627991
21008.7891	-66.657516
21011.7188	-66.694550
21014.6484	-66.731575
21017.5781	-66.771889
21020.5078	-66.813362
21023.4375	-66.853760
21026.3672	-66.891991
21029.2969	-66.924797
21032.2266	-66.959923
21035.1562	-66.996826
21038.0859	-67.032814
21041.0156	-67.067139
21043.9453	-67.091530
21046.8750	-67.115356
21049.8047	-67.149612
21052.7344	-67.179970
21055.6641	-67.202438
21058.5938	-67.234100
21061.5234	-67.271149
21064.4531	-67.304153
21067.3828	-67.334358
21070.3125	-67.367226
21073.2422	-67.398300
21076.1719	-67.425209
21079.1016	-67.455116
21082.0312	-67.479767
21084.9609	-67.499283
21087.8906	-67.528816
21090.8203	-67.563034
21093.7500	-67.593506
21096.6797	-67.622345
21099.6094	-67.647896
21102.5391	-67.674934
21105.4688	-67.700089
21108.3984	-67.728699
21111.3281	-67.766678
21114.2578	-67.798935
21117.1875	-67.830910
21120.1172	-67.860466
21123.0469	-67.887939
21125.9766	-67.919281
21128.9062	-67.950363
21131.8359	-67.979439
21134.7656	-67.999184
21137.6953	-68.021751
21140.6250	-68.050095
21143.5547	-68.076248
21146.4844	-68.104652
21149.4141	-68.134552
21152.3438	-68.165985
21155.2734	-68.196487
21158.2031	-68.221626
21161.1328	-68.246506
21164.0625	-68.272026
21166.9922	-68.294724
21169.9219	-68.318977
21172.8516	-68.334076
21175.7812	-68.345070
21178.7109	-68.361702
21181.6406	-68.383049
21184.5703	-68.404114
21187.5000	-68.428566
21190.4297	-68.449730
21193.3594	-68.464577
21196.2891	-68.477814
21199.2188	-68.492012
21202.1484	-68.510574
21205.0781	-68.527191
21208.0078	-68.539871
21210.9375	-68.556381
21213.8672	-68.577637
21216.7969	-68.601044
21219.7266	-68.617668
21222.6562	-68.631363
21225.5859	-68.654900
21228.5156	-68.674622
21231.4453	-68.688644
21234.3750	-68.710297
21237.3047	-68.731857
21240.2344	-68.747215
21243.1641	-68.765579
21246.0938	-68.789536
21249.0234	-68.810966
21251.9531	-68.828751
21254.8828	-68.844917
21257.8125	-68.863464
21260.7422	-68.884735
21263.6719	-68.906693
21266.6016	-68.928497
21269.5312	-68.947067
21272.4609	-68.966499
21275.3906	-68.979561
21278.3203	-68.989426
21281.2500	-69.013962
21284.1797	-69.039597
21287.1094	-69.054367
21290.0391	-69.064926
21292.9688	-69.079041
21295.8984	-69.106224
21298.8281	-69.137108
21301.7578	-69.155029
21304.6875	-69.173698
21307.6172	-69.196793
21310.5469	-69.209503
21313.4766	-69.212875
21316.4062	-69.220680
21319.3359	-69.241379
21322.2656	-69.263351
21325.1953	-69.273483
21328.1250	-69.284477
21331.0547	-69.306404
21333.9844	-69.323822
21336.9141	-69.328789
21339.8438	-69.338020
21342.7734	-69.357338
21345.7031	-69.381783
21348.6328	-69.401352
21351.5625	-69.413734
21354.4922	-69.429321
21357.4219	-69.443985
21360.3516	-69.456139
21363.2812	-69.480347
21366.2109	-69.505676
21369.1406	-69.514938
21372.0703	-69.522850
21375.0000	-69.539833
21377.9297	-69.559883
21380.8594	-69.576111
21383.7891	-69.586250
21386.7188	-69.599770
21389.6484	-69.621666
21392.5781	-69.641632
21395.5078	-69.651245
21398.4375	-69.659203
21401.3672	-69.681595
21404.2969	-69.706161
21407.2266	-69.722076
21410.1562	-69.743706
21413.0859	-69.767189
21416.0156	-69.786522
21418.9453	-69.809944
21421.8750	-69.831215
21424.8047	-69.846092
21427.7344	-69.864555
21430.6641	-69.879089
21433.5938	-69.892586
21436.5234	-69.894493
21439.4531	-69.889183
21442.3828	-69.900734
21445.3125	-69.922188
21448.2422	-69.934563
21451.1719	-69.938713
21454.1016	-69.950653
21457.0312	-69.971794
21459.9609	-69.978493
21462.8906	-69.978981
21465.8203	-69.992706
21468.7500	-70.012100
21471.6797	-70.026001
21474.6094	-70.029099
21477.5391	-70.030930
21480.4688	-70.043144
21483.3984	-70.055321
21486.3281	-70.063194
21489.2578	-70.077232
21492.1875	-70.085075
21495.1172	-70.088287
21498.0469	-70.101440
21500.9766	-70.114281
21503.9062	-70.115082
21506.8359	-70.115295
21509.7656	-70.131516
21512.6953	-70.154640
21515.6250	-70.174759
21518.5547	-70.183853
21521.4844	-70.188332
21524.4141	-70.206467
21527.3438	-70.226089
21530.2734	-70.238129
21533.2031	-70.245613
21536.1328	-70.247604
21539.0625	-70.261070
21541.9922	-70.288246
21544.9219	-70.308098
21547.8516	-70.315079
21550.7812	-70.323395
21553.7109	-70.339890
21556.6406	-70.355820
21559.5703	-70.367691
21562.5000	-70.382332
21565.4297	-70.400032
21568.3594	-70.415611
21571.2891	-70.430298
21574.2188	-70.439575
21577.1484	-70.450111
21580.0781	-70.471664
21583.0078	-70.498192
21585.9375	-70.518654
21588.8672	-70.527908
21591.7969	-70.545082
21594.7266	-70.567612
21597.6562	-70.577339
21600.5859	-70.588264
21603.5156	-70.594330
21606.4453	-70.598190
21609.3750	-70.606186
21612.3047	-70.617485
21615.2344	-70.626724
21618.1641	-70.634071
21621.0938	-70.637222
21624.0234	-70.646919
21626.9531	-70.659767
21629.8828	-70.665184
21632.8125	-70.672073
21635.7422	-70.680908
21638.6719	-70.692207
21641.6016	-70.708252
21644.5312	-70.723671
21647.4609	-70.726059
21650.3906	-70.721817
21653.3203	-70.728920
21656.2500	-70.740837
21659.1797	-70.753578
21662.1094	-70.773712
21665.0391	-70.786552
21667.9688	-70.783173
21670.8984	-70.783485
21673.8281	-70.795769
21676.7578	-70.809685
21679.6875	-70.822037
21682.6172	-70.830605
21685.5469	-70.833405
21688.4766	-70.840416
21691.4062	-70.853233
21694.3359	-70.872360
21697.2656	-70.893280
21700.1953	-70.904236
21703.1250	-70.921059
21706.0547	-70.941277
21708.9844	-70.952217
21711.9141	-70.962990
21714.8438	-70.971581
21717.7734	-70.977058
21720.7031	-70.985634
21723.6328	-70.992378
21726.5625	-70.997482
21729.4922	-71.012680
21732.4219	-71.034393
21735.3516	-71.044945
21738.2812	-71.038956
21741.2109	-71.039124
21744.1406	-71.043793
21747.0703	-71.048897
21750.0000	-71.061989
21752.9297	-71.073067
21755.8594	-71.075729
21758.7891	-71.079796
21761.7188	-71.090302
21764.6484	-71.104813
21767.5781	-71.118225
21770.5078	-71.130447
21773.4375	-71.140350
21776.3672	-71.150703
21779.2969	-71.163971
21782.2266	-71.176086
21785.1562	-71.189507
21788.0859	-71.198326
21791.0156	-71.205551
21793.9453	-71.223038
21796.8750	-71.240898
21799.8047	-71.251785
21802.7344	-71.258247
21805.6641	-71.265182
21808.5938	-71.281036
21811.5234	-71.296570
21814.4531	-71.299507
21817.3828	-71.306381
21820.3125	-71.329666
21823.2422	-71.350487
21826.1719	-71.359245
21829.1016	-71.363556
21832.0312	-71.371643
21834.9609	-71.383842
21837.8906	-71.393272
21840.8203	-71.398712
21843.7500	-71.412849
21846.6797	-71.435890
21849.6094	-71.450653
21852.5391	-71.459633
21855.4688	-71.474693
21858.3984	-71.493668
21861.3281	-71.497810
21864.2578	-71.506714
21867.1875	-71.506691
21870.1172	-71.498787
21873.0469	-71.504784
21875.9766	-71.518959
21878.9062	-71.533096
21881.8359	-71.540848
21884.7656	-71.547142
21887.6953	-71.550186
21890.6250	-71.546257
21893.5547	-71.550697
21896.4844	-71.560616
21899.4141	-71.567139
21902.3438	-71.572624
21905.2734	-71.580688
21908.2031	-71.586960
21911.1328	-71.590271
21914.0625	-71.598953
21916.9922	-71.609604
21919.9219	-71.616325
21922.8516	-71.626175
21925.7812	-71.636429
21928.7109	-71.640656
21931.6406	-71.640327
21934.5703	-71.643448
21937.5000	-71.650169
21940.4297	-71.660713
21943.3594	-71.673828
21946.2891	-71.680832
21949.2188	-71.698219
21952.1484	-71.708328
21955.0781	-71.702087
21958.0078	-71.717010
21960.9375	-71.743156
21963.8672	-71.756241
21966.7969	-71.766479
21969.7266	-71.777527
21972.6562	-71.774963
21975.5859	-71.771355
21978.5156	-71.787918
21981.4453	-71.811729
21984.3750	-71.829666
21987.3047	-71.842514
21990.2344	-71.840050
21993.1641	-71.843452
21996.0938	-71.856201
21999.0234	-71.857788
22001.9531	-71.861465
22004.8828	-71.876869
22007.8125	-71.884834
22010.7422	-71.891312
22013.6719	-71.900627
22016.6016	-71.900024
22019.5312	-71.896683
22022.4609	-71.904678
22025.3906	-71.924110
22028.3203	-71.948547
22031.2500	-71.968750
22034.1797	-71.975983
22037.1094	-71.970688
22040.0391	-71.971146
22042.9688	-71.984344
22045.8984	-71.996529
22048.8281	-72.000130
22051.7578	-72.004410
22054.6875	-72.017090
22057.6172	-72.030479
22060.5469	-72.041763
22063.4766	-72.052963
22066.4062	-72.064484
22069.3359	-72.075470
22072.2656	-72.087051
22075.1953	-72.101265
22078.1250	-72.111526
22081.0547	-72.122200
22083.9844	-72.141678
22086.9141	-72.160477
22089.8438	-72.162750
22092.7734	-72.159477
22095.7031	-72.178970
22098.6328	-72.200554
22101.5625	-72.206657
22104.4922	-72.217262
22107.4219	-72.241776
22110.3516	-72.267502
22113.2812	-72.274178
22116.2109	-72.277916
22119.1406	-72.282684
22122.0703	-72.290466
22125.0000	-72.288902
22127.9297	-72.291328
22130.8594	-72.308907
22133.7891	-72.326019
22136.7188	-72.335335
22139.6484	-72.333488
22142.5781	-72.322372
22145.5078	-72.325951
22148.4375	-72.334534
22151.3672	-72.333282
22154.2969	-72.336060
22157.2266	-72.344284
22160.1562	-72.354561
22163.0859	-72.365952
22166.0156	-72.366577
22168.9453	-72.370018
22171.8750	-72.391563
22174.8047	-72.412704
22177.7344	-72.418625
22180.6641	-72.417877
22183.5938	-72.420013
22186.5234	-72.423538
22189.4531	-72.439674
22192.3828	-72.458817
22195.3125	-72.458008
22198.2422	-72.458633
22201.1719	-72.469772
22204.1016	-72.473412
22207.0312	-72.477966
22209.9609	-72.487564
22212.8906	-72.499458
22215.8203	-72.514015
22218.7500	-72.525253
22221.6797	-72.537079
22224.6094	-72.548775
22227.5391	-72.559059
22230.4688	-72.566978
22233.3984	-72.575340
22236.3281	-72.590706
22239.2578	-72.598732
22242.1875	-72.602074
22245.1172	-72.619705
22248.0469	-72.633080
22250.9766	-72.636665
22253.9062	-72.648819
22256.8359	-72.662010
22259.7656	-72.675735
22262.6953	-72.690910
22265.6250	-72.704056
22268.5547	-72.725243
22271.4844	-72.734962
22274.4141	-72.732559
22277.3438	-72.747734
22280.2734	-72.760536
22283.2031	-72.768311
22286.1328	-72.792427
22289.0625	-72.808067
22291.9922	-72.805763
22294.9219	-72.817406
22297.8516	-72.829926
22300.7812	-72.830475
22303.7109	-72.833748
22306.6406	-72.839172
22309.5703	-72.837280
22312.5000	-72.834045
22315.4297	-72.839737
22318.3594	-72.857986
22321.2891	-72.874817
22324.2188	-72.882660
22327.1484	-72.884125
22330.0781	-72.874535
22333.0078	-72.867531
22335.9375	-72.879921
22338.8672	-72.896812
22341.7969	-72.902847
22344.7266	-72.916809
22347.6562	-72.935402
22350.5859	-72.932381
22353.5156	-72.925079
22356.4453	-72.943848
22359.3750	-72.966469
22362.3047	-72.973358
22365.2344	-72.976837
22368.1641	-72.985451
22371.0938	-72.995293
22374.0234	-72.997482
22376.9531	-73.002686
22379.8828	-73.007812
22382.8125	-73.005753
22385.7422	-73.009056
22388.6719	-73.028046
22391.6016	-73.047157
22394.5312	-73.061256
22397.4609	-73.070152
22400.3906	-73.067299
22403.3203	-73.079185
22406.2500	-73.098694
22409.1797	-73.115196
22412.1094	-73.125801
22415.0391	-73.130867
22417.9688	-73.156029
22420.8984	-73.170860
22423.8281	-73.176285
22426.7578	-73.189789
22429.6875	-73.195007
22432.6172	-73.213203
22435.5469	-73.232094
22438.4766	-73.220215
22441.4062	-73.221306
22444.3359	-73.228981
22447.2656	-73.224648
22450.1953	-73.238052
22453.1250	-73.259857
22456.0547	-73.269936
22458.9844	-73.268570
22461.9141	-73.267929
22464.8438	-73.278610
22467.7734	-73.289848
22470.7031	-73.300621
22473.6328	-73.319099
22476.5625	-73.335197
22479.4922	-73.352455
22482.4219	-73.366325
22485.3516	-73.358589
22488.2812	-73.355621
