;Freq(Hz)	Relative Amplitude (dB): Left
19502.9297	-69.627197
19505.8594	-69.647820
19508.7891	-69.668930
19511.7188	-69.687439
19514.6484	-69.699234
19517.5781	-69.712891
19520.5078	-69.738548
19523.4375	-69.769623
19526.3672	-69.789124
19529.2969	-69.802422
19532.2266	-69.820564
19535.1562	-69.840759
19538.0859	-69.857979
19541.0156	-69.870193
19543.9453	-69.882317
19546.8750	-69.895699
19549.8047	-69.906776
19552.7344	-69.914734
19555.6641	-69.926201
19558.5938	-69.934052
19561.5234	-69.945839
19564.4531	-69.961838
19567.3828	-69.973152
19570.3125	-69.982796
19573.2422	-69.990982
19576.1719	-70.007080
19579.1016	-70.022766
19582.0312	-70.028534
19584.9609	-70.037338
19587.8906	-70.051437
19590.8203	-70.068336
19593.7500	-70.088287
19596.6797	-70.105675
19599.6094	-70.122200
19602.5391	-70.139198
19605.4688	-70.156799
19608.3984	-70.175255
19611.3281	-70.195457
19614.2578	-70.214073
19617.1875	-70.229614
19620.1172	-70.245018
19623.0469	-70.258308
19625.9766	-70.276390
19628.9062	-70.297035
19631.8359	-70.318848
19634.7656	-70.347664
19637.6953	-70.371994
19640.6250	-70.390694
19643.5547	-70.412872
19646.4844	-70.436760
19649.4141	-70.460609
19652.3438	-70.476479
19655.2734	-70.486938
19658.2031	-70.508827
19661.1328	-70.533531
19664.0625	-70.552429
19666.9922	-70.571930
19669.9219	-70.596420
19672.8516	-70.628029
19675.7812	-70.657349
19678.7109	-70.676247
19681.6406	-70.694519
19684.5703	-70.715622
19687.5000	-70.734917
19690.4297	-70.752991
19693.3594	-70.778320
19696.2891	-70.802757
19699.2188	-70.820709
19702.1484	-70.847740
19705.0781	-70.875099
19708.0078	-70.899376
19710.9375	-70.917816
19713.8672	-70.931267
19716.7969	-70.942223
19719.7266	-70.955414
19722.6562	-70.975060
19725.5859	-70.994072
19728.5156	-71.009918
19731.4453	-71.023598
19734.3750	-71.038589
19737.3047	-71.059837
19740.2344	-71.082481
19743.1641	-71.099396
19746.0938	-71.117401
19749.0234	-71.138611
19751.9531	-71.160645
19754.8828	-71.182884
19757.8125	-71.202377
19760.7422	-71.229355
19763.6719	-71.251785
19766.6016	-71.262627
19769.5312	-71.283012
19772.4609	-71.309959
19775.3906	-71.333893
19778.3203	-71.357712
19781.2500	-71.380165
19784.1797	-71.395226
19787.1094	-71.408653
19790.0391	-71.435806
19792.9688	-71.466957
19795.8984	-71.489174
19798.8281	-71.512352
19801.7578	-71.538109
19804.6875	-71.560493
19807.6172	-71.580482
19810.5469	-71.606209
19813.4766	-71.639694
19816.4062	-71.673515
19819.3359	-71.704880
19822.2656	-71.730743
19825.1953	-71.752975
19828.1250	-71.781898
19831.0547	-71.818146
19833.9844	-71.851936
19836.9141	-71.874733
19839.8438	-71.894806
19842.7734	-71.921181
19845.7031	-71.955681
19848.6328	-71.995209
19851.5625	-72.023163
19854.4922	-72.047432
19857.4219	-72.082794
19860.3516	-72.121513
19863.2812	-72.152069
19866.2109	-72.177933
19869.1406	-72.207962
19872.0703	-72.241196
19875.0000	-72.277946
19877.9297	-72.314163
19880.8594	-72.344025
19883.7891	-72.371162
19886.7188	-72.399727
19889.6484	-72.427513
19892.5781	-72.459831
19895.5078	-72.492783
19898.4375	-72.517006
19901.3672	-72.538803
19904.2969	-72.563736
19907.2266	-72.590958
19910.1562	-72.617661
19913.0859	-72.640709
19916.0156	-72.660599
19918.9453	-72.693550
19921.8750	-72.738945
19924.8047	-72.774406
19927.7344	-72.804184
19930.6641	-72.838364
19933.5938	-72.870667
19936.5234	-72.901649
19939.4531	-72.934914
19942.3828	-72.969421
19945.3125	-72.998741
19948.2422	-73.031937
19951.1719	-73.081329
19954.1016	-73.125542
19957.0312	-73.160347
19959.9609	-73.193382
19962.8906	-73.231743
19965.8203	-73.274742
19968.7500	-73.317993
19971.6797	-73.366562
19974.6094	-73.407135
19977.5391	-73.441055
19980.4688	-73.475800
19983.3984	-73.516800
19986.3281	-73.561974
19989.2578	-73.596596
19992.1875	-73.635536
19995.1172	-73.684341
19998.0469	-73.734886
20000.9766	-73.788254
20003.9062	-73.830299
20006.8359	-73.861084
20009.7656	-73.904449
20012.6953	-73.958549
20015.6250	-74.012390
20018.5547	-74.059448
20021.4844	-74.095299
20024.4141	-74.129982
20027.3438	-74.172363
20030.2734	-74.220581
20033.2031	-74.275269
20036.1328	-74.339249
20039.0625	-74.399567
20041.9922	-74.446632
20044.9219	-74.497612
20047.8516	-74.551880
20050.7812	-74.599373
20053.7109	-74.648689
20056.6406	-74.687508
20059.5703	-74.723656
20062.5000	-74.779724
20065.4297	-74.845528
20068.3594	-74.911659
20071.2891	-74.970116
20074.2188	-75.029503
20077.1484	-75.095650
20080.0781	-75.159485
20083.0078	-75.229103
20085.9375	-75.296349
20088.8672	-75.356544
20091.7969	-75.423714
20094.7266	-75.501198
20097.6562	-75.575958
20100.5859	-75.638039
20103.5156	-75.702026
20106.4453	-75.763893
20109.3750	-75.828018
20112.3047	-75.914619
20115.2344	-75.991516
20118.1641	-76.051437
20121.0938	-76.124733
20124.0234	-76.210861
20126.9531	-76.296562
20129.8828	-76.384521
20132.8125	-76.470650
20135.7422	-76.544815
20138.6719	-76.630951
20141.6016	-76.723442
20144.5312	-76.800758
20147.4609	-76.869995
20150.3906	-76.951843
20153.3203	-77.047447
20156.2500	-77.148857
20159.1797	-77.250107
20162.1094	-77.341827
20165.0391	-77.416428
20167.9688	-77.497597
20170.8984	-77.596420
20173.8281	-77.699524
20176.7578	-77.800369
20179.6875	-77.904221
20182.6172	-78.009674
20185.5469	-78.110664
20188.4766	-78.217239
20191.4062	-78.330505
20194.3359	-78.434174
20197.2656	-78.534248
20200.1953	-78.654587
20203.1250	-78.784981
20206.0547	-78.918869
20208.9844	-79.066032
20211.9141	-79.205742
20214.8438	-79.344528
20217.7734	-79.489304
20220.7031	-79.618713
20223.6328	-79.754059
20226.5625	-79.911087
20229.4922	-80.070877
20232.4219	-80.223419
20235.3516	-80.385658
20238.2812	-80.556091
20241.2109	-80.733894
20244.1406	-80.928505
20247.0703	-81.132393
20250.0000	-81.338692
20252.9297	-81.526482
20255.8594	-81.715004
20258.7891	-81.918900
20261.7188	-82.132362
20264.6484	-82.353096
20267.5781	-82.576324
20270.5078	-82.815308
20273.4375	-83.050911
20276.3672	-83.295692
20279.2969	-83.550980
20282.2266	-83.809807
20285.1562	-84.131248
20288.0859	-84.457626
20291.0156	-84.760002
20293.9453	-85.098083
20296.8750	-85.462257
20299.8047	-85.807587
20302.7344	-86.144562
20305.6641	-86.526512
20308.5938	-87.016663
20311.5234	-87.565094
20314.4531	-88.084488
20317.3828	-88.643028
20320.3125	-89.235901
20323.2422	-89.872673
20326.1719	-90.591629
20329.1016	-91.270020
20332.0312	-91.950623
20334.9609	-92.788635
20337.8906	-93.738968
20340.8203	-94.780090
20343.7500	-96.083145
20346.6797	-97.584526
20349.6094	-98.952408
20352.5391	-100.088882
20355.4688	-100.878105
20358.3984	-100.871437
20361.3281	-99.729706
20364.2578	-98.190704
20367.1875	-96.803261
20370.1172	-95.487045
20373.0469	-94.305511
20375.9766	-93.276054
20378.9062	-92.320473
20381.8359	-91.381241
20384.7656	-90.458672
20387.6953	-89.580193
20390.6250	-88.782799
20393.5547	-88.036858
20396.4844	-87.333633
20399.4141	-86.738815
20402.3438	-86.156601
20405.2734	-85.621094
20408.2031	-85.121658
20411.1328	-84.616730
20414.0625	-84.141510
20416.9922	-83.650124
20419.9219	-83.133369
20422.8516	-82.679367
20425.7812	-82.271431
20428.7109	-81.848656
20431.6406	-81.430641
20434.5703	-81.043472
20437.5000	-80.640984
20440.4297	-80.212914
20443.3594	-79.823875
20446.2891	-79.476631
20449.2188	-79.136253
20452.1484	-78.794113
20455.0781	-78.447334
20458.0078	-78.102112
20460.9375	-77.760788
20463.8672	-77.441185
20466.7969	-77.136024
20469.7266	-76.828568
20472.6562	-76.537903
20475.5859	-76.248627
20478.5156	-75.954620
20481.4453	-75.673767
20484.3750	-75.401886
20487.3047	-75.128731
20490.2344	-74.847069
20493.1641	-74.569534
20496.0938	-74.301300
20499.0234	-74.043167
20501.9531	-73.797218
20504.8828	-73.549225
20507.8125	-73.304543
20510.7422	-73.062469
20513.6719	-72.803780
20516.6016	-72.550835
20519.5312	-72.318031
20522.4609	-72.078995
20525.3906	-71.828033
20528.3203	-71.592209
20531.2500	-71.365974
20534.1797	-71.125954
20537.1094	-70.877411
20540.0391	-70.633141
20542.9688	-70.407059
20545.8984	-70.184525
20548.8281	-69.962273
20551.7578	-69.739830
20554.6875	-69.512123
20557.6172	-69.285751
20560.5469	-69.053474
20563.4766	-68.822365
20566.4062	-68.597908
20569.3359	-68.372421
20572.2656	-68.133141
20575.1953	-67.887932
20578.1250	-67.644531
20581.0547	-67.401711
20583.9844	-67.165977
20586.9141	-66.931061
20589.8438	-66.690926
20592.7734	-66.450287
20595.7031	-66.211609
20598.6328	-65.967949
20601.5625	-65.723328
20604.4922	-65.481880
20607.4219	-65.238617
20610.3516	-64.998672
20613.2812	-64.761887
20616.2109	-64.522400
20619.1406	-64.273117
20622.0703	-64.018547
20625.0000	-63.766140
20627.9297	-63.515083
20630.8594	-63.265759
20633.7891	-63.011211
20636.7188	-62.749077
20639.6484	-62.488411
20642.5781	-62.231747
20645.5078	-61.971035
20648.4375	-61.704239
20651.3672	-61.434608
20654.2969	-61.160324
20657.2266	-60.881531
20660.1562	-60.602863
20663.0859	-60.326225
20666.0156	-60.044270
20668.9453	-59.754757
20671.8750	-59.463104
20674.8047	-59.168362
20677.7344	-58.867012
20680.6641	-58.562824
20683.5938	-58.254612
20686.5234	-57.934986
20689.4531	-57.610039
20692.3828	-57.285751
20695.3125	-56.952557
20698.2422	-56.613808
20701.1719	-56.273369
20704.1016	-55.923141
20707.0312	-55.566212
20709.9609	-55.201565
20712.8906	-54.820892
20715.8203	-54.430481
20718.7500	-54.037529
20721.6797	-53.638283
20724.6094	-53.225140
20727.5391	-52.793751
20730.4688	-52.351871
20733.3984	-51.903522
20736.3281	-51.440662
20739.2578	-50.964378
20742.1875	-50.475861
20745.1172	-49.971127
20748.0469	-49.452549
20750.9766	-48.926113
20753.9062	-48.394638
20756.8359	-47.855255
20759.7656	-47.317238
20762.6953	-46.794735
20765.6250	-46.287266
20768.5547	-45.793453
20771.4844	-45.318104
20774.4141	-44.864227
20777.3438	-44.445213
20780.2734	-44.080093
20783.2031	-43.766190
20786.1328	-43.521843
20789.0625	-43.370144
20791.9922	-43.317062
20794.9219	-43.349571
20797.8516	-43.451500
20800.7812	-43.622559
20803.7109	-43.849300
20806.6406	-44.109867
20809.5703	-44.403389
20812.5000	-44.727345
20815.4297	-45.079830
20818.3594	-45.464050
20821.2891	-45.866142
20824.2188	-46.275078
20827.1484	-46.692986
20830.0781	-47.118649
20833.0078	-47.543598
20835.9375	-47.961773
20838.8672	-48.375793
20841.7969	-48.781803
20844.7266	-49.175587
20847.6562	-49.558563
20850.5859	-49.931358
20853.5156	-50.295422
20856.4453	-50.651302
20859.3750	-50.994740
20862.3047	-51.324394
20865.2344	-51.643730
20868.1641	-51.954056
20871.0938	-52.252800
20874.0234	-52.542187
20876.9531	-52.822392
20879.8828	-53.089500
20882.8125	-53.346977
20885.7422	-53.593838
20888.6719	-53.829948
20891.6016	-54.057148
20894.5312	-54.273022
20897.4609	-54.485035
20900.3906	-54.696850
20903.3203	-54.901852
20906.2500	-55.098583
20909.1797	-55.287067
20912.1094	-55.468914
20915.0391	-55.648289
20917.9688	-55.822292
20920.8984	-55.987648
20923.8281	-56.148685
20926.7578	-56.307537
20929.6875	-56.464275
20932.6172	-56.618191
20935.5469	-56.765884
20938.4766	-56.908001
20941.4062	-57.047848
20944.3359	-57.184498
20947.2656	-57.318817
20950.1953	-57.453159
20953.1250	-57.582722
20956.0547	-57.704899
20958.9844	-57.820049
20961.9141	-57.935505
20964.8438	-58.052235
20967.7734	-58.169525
20970.7031	-58.278053
20973.6328	-58.379246
20976.5625	-58.487221
20979.4922	-58.593525
20982.4219	-58.693615
20985.3516	-58.792530
20988.2812	-58.888412
20991.2109	-58.981983
20994.1406	-59.071548
20997.0703	-59.159843
21000.0000	-59.245701
21002.9297	-59.325531
21005.8594	-59.404842
21008.7891	-59.484112
21011.7188	-59.564220
21014.6484	-59.645397
21017.5781	-59.726776
21020.5078	-59.808517
21023.4375	-59.885197
21026.3672	-59.960594
21029.2969	-60.037468
21032.2266	-60.111801
21035.1562	-60.184792
21038.0859	-60.255569
21041.0156	-60.323906
21043.9453	-60.395168
21046.8750	-60.468479
21049.8047	-60.537895
21052.7344	-60.604431
21055.6641	-60.672512
21058.5938	-60.743370
21061.5234	-60.812088
21064.4531	-60.877743
21067.3828	-60.943794
21070.3125	-61.009289
21073.2422	-61.074619
21076.1719	-61.137375
21079.1016	-61.198364
21082.0312	-61.262379
21084.9609	-61.325214
21087.8906	-61.380836
21090.8203	-61.432541
21093.7500	-61.485470
21096.6797	-61.537163
21099.6094	-61.583012
21102.5391	-61.632561
21105.4688	-61.684196
21108.3984	-61.733040
21111.3281	-61.783318
21114.2578	-61.834831
21117.1875	-61.882156
21120.1172	-61.929123
21123.0469	-61.977688
21125.9766	-62.024021
21128.9062	-62.068233
21131.8359	-62.112732
21134.7656	-62.162613
21137.6953	-62.214676
21140.6250	-62.259922
21143.5547	-62.301018
21146.4844	-62.343750
21149.4141	-62.388783
21152.3438	-62.433685
21155.2734	-62.475594
21158.2031	-62.515129
21161.1328	-62.551353
21164.0625	-62.588612
21166.9922	-62.627350
21169.9219	-62.663143
21172.8516	-62.702225
21175.7812	-62.745274
21178.7109	-62.789032
21181.6406	-62.831524
21184.5703	-62.871437
21187.5000	-62.909164
21190.4297	-62.947098
21193.3594	-62.990368
21196.2891	-63.032616
21199.2188	-63.069271
21202.1484	-63.107872
21205.0781	-63.150536
21208.0078	-63.189472
21210.9375	-63.226040
21213.8672	-63.267239
21216.7969	-63.310482
21219.7266	-63.348419
21222.6562	-63.384289
21225.5859	-63.425362
21228.5156	-63.462673
21231.4453	-63.497601
21234.3750	-63.535271
21237.3047	-63.574787
21240.2344	-63.615437
21243.1641	-63.654957
21246.0938	-63.690495
21249.0234	-63.724705
21251.9531	-63.759964
21254.8828	-63.795979
21257.8125	-63.828831
21260.7422	-63.851143
21263.6719	-63.875706
21266.6016	-63.906609
21269.5312	-63.941002
21272.4609	-63.970673
21275.3906	-63.996033
21278.3203	-64.022995
21281.2500	-64.055199
21284.1797	-64.085190
21287.1094	-64.111061
21290.0391	-64.137650
21292.9688	-64.163940
21295.8984	-64.191589
21298.8281	-64.217491
21301.7578	-64.243462
21304.6875	-64.273148
21307.6172	-64.303238
21310.5469	-64.331970
21313.4766	-64.359406
21316.4062	-64.386101
21319.3359	-64.411285
21322.2656	-64.432693
21325.1953	-64.452324
21328.1250	-64.478363
21331.0547	-64.507431
21333.9844	-64.531898
21336.9141	-64.552002
21339.8438	-64.574356
21342.7734	-64.604134
21345.7031	-64.633888
21348.6328	-64.662491
21351.5625	-64.687698
21354.4922	-64.709259
21357.4219	-64.736923
21360.3516	-64.764183
21363.2812	-64.789360
21366.2109	-64.818680
21369.1406	-64.843445
21372.0703	-64.867516
21375.0000	-64.896271
21377.9297	-64.918518
21380.8594	-64.936874
21383.7891	-64.959267
21386.7188	-64.980896
21389.6484	-64.998032
21392.5781	-65.017654
21395.5078	-65.043175
21398.4375	-65.070610
21401.3672	-65.092552
21404.2969	-65.108055
21407.2266	-65.126251
21410.1562	-65.152580
21413.0859	-65.183594
21416.0156	-65.209923
21418.9453	-65.230362
21421.8750	-65.251846
21424.8047	-65.275131
21427.7344	-65.301361
21430.6641	-65.326103
21433.5938	-65.346786
21436.5234	-65.369331
21439.4531	-65.390900
21442.3828	-65.410538
21445.3125	-65.433365
21448.2422	-65.458565
21451.1719	-65.486969
21454.1016	-65.515244
21457.0312	-65.538177
21459.9609	-65.560402
21462.8906	-65.583511
21465.8203	-65.606346
21468.7500	-65.630501
21471.6797	-65.656029
21474.6094	-65.675903
21477.5391	-65.689926
21480.4688	-65.706116
21483.3984	-65.726067
21486.3281	-65.751991
21489.2578	-65.776909
21492.1875	-65.793159
21495.1172	-65.808563
21498.0469	-65.827576
21500.9766	-65.846527
21503.9062	-65.866837
21506.8359	-65.888786
21509.7656	-65.910744
21512.6953	-65.935165
21515.6250	-65.957283
21518.5547	-65.976707
21521.4844	-65.992592
21524.4141	-66.011269
21527.3438	-66.031769
21530.2734	-66.042496
21533.2031	-66.053993
21536.1328	-66.072090
21539.0625	-66.087051
21541.9922	-66.103386
21544.9219	-66.119713
21547.8516	-66.133904
21550.7812	-66.152397
21553.7109	-66.168701
21556.6406	-66.182732
21559.5703	-66.200966
21562.5000	-66.212151
21565.4297	-66.221237
21568.3594	-66.240326
21571.2891	-66.261444
21574.2188	-66.281235
21577.1484	-66.297691
21580.0781	-66.309143
21583.0078	-66.321091
21585.9375	-66.339233
21588.8672	-66.361374
21591.7969	-66.380524
21594.7266	-66.399147
21597.6562	-66.416313
21600.5859	-66.432449
21603.5156	-66.454399
21606.4453	-66.475471
21609.3750	-66.493523
21612.3047	-66.510773
21615.2344	-66.523674
21618.1641	-66.537041
21621.0938	-66.553825
21624.0234	-66.570602
21626.9531	-66.588188
21629.8828	-66.609604
21632.8125	-66.632927
21635.7422	-66.655670
21638.6719	-66.676971
21641.6016	-66.691521
21644.5312	-66.705597
21647.4609	-66.723053
21650.3906	-66.738937
21653.3203	-66.752083
21656.2500	-66.767052
21659.1797	-66.781967
21662.1094	-66.797043
21665.0391	-66.811707
21667.9688	-66.828354
21670.8984	-66.846565
21673.8281	-66.863205
21676.7578	-66.876289
21679.6875	-66.888313
21682.6172	-66.906281
21685.5469	-66.924210
21688.4766	-66.935867
21691.4062	-66.951164
21694.3359	-66.975510
21697.2656	-66.995941
21700.1953	-67.008842
21703.1250	-67.023399
21706.0547	-67.042023
21708.9844	-67.062325
21711.9141	-67.078506
21714.8438	-67.091980
21717.7734	-67.105927
21720.7031	-67.116898
21723.6328	-67.128838
21726.5625	-67.146149
21729.4922	-67.161926
21732.4219	-67.176231
21735.3516	-67.193695
21738.2812	-67.208916
21741.2109	-67.223732
21744.1406	-67.241035
21747.0703	-67.255341
21750.0000	-67.269882
21752.9297	-67.288155
21755.8594	-67.309059
21758.7891	-67.329117
21761.7188	-67.348755
21764.6484	-67.371613
21767.5781	-67.391769
21770.5078	-67.411339
21773.4375	-67.426643
21776.3672	-67.438248
21779.2969	-67.453140
21782.2266	-67.462402
21785.1562	-67.474983
21788.0859	-67.489174
21791.0156	-67.497658
21793.9453	-67.506302
21796.8750	-67.521416
21799.8047	-67.539604
21802.7344	-67.553055
21805.6641	-67.563301
21808.5938	-67.572525
21811.5234	-67.581139
21814.4531	-67.592278
21817.3828	-67.603745
21820.3125	-67.614098
21823.2422	-67.627022
21826.1719	-67.635895
21829.1016	-67.642632
21832.0312	-67.651703
21834.9609	-67.662872
21837.8906	-67.679443
21840.8203	-67.692902
21843.7500	-67.702042
21846.6797	-67.713181
21849.6094	-67.725601
21852.5391	-67.738808
21855.4688	-67.751854
21858.3984	-67.763893
21861.3281	-67.777214
21864.2578	-67.794685
21867.1875	-67.808456
21870.1172	-67.811470
21873.0469	-67.819763
21875.9766	-67.842003
21878.9062	-67.861282
21881.8359	-67.872833
21884.7656	-67.883324
21887.6953	-67.895073
21890.6250	-67.910988
21893.5547	-67.929100
21896.4844	-67.948135
21899.4141	-67.965591
21902.3438	-67.972694
21905.2734	-67.977112
21908.2031	-67.992714
21911.1328	-68.008591
21914.0625	-68.018349
21916.9922	-68.028038
21919.9219	-68.037895
21922.8516	-68.047913
21925.7812	-68.059334
21928.7109	-68.068298
21931.6406	-68.077202
21934.5703	-68.089981
21937.5000	-68.105530
21940.4297	-68.115944
21943.3594	-68.121155
21946.2891	-68.136070
21949.2188	-68.156319
21952.1484	-68.169647
21955.0781	-68.182243
21958.0078	-68.195793
21960.9375	-68.209984
21963.8672	-68.228294
21966.7969	-68.242531
21969.7266	-68.252350
21972.6562	-68.266960
21975.5859	-68.280685
21978.5156	-68.291016
21981.4453	-68.307938
21984.3750	-68.330360
21987.3047	-68.347847
21990.2344	-68.360985
21993.1641	-68.372070
21996.0938	-68.383713
21999.0234	-68.402237
22001.9531	-68.421745
22004.8828	-68.435287
22007.8125	-68.449242
22010.7422	-68.470375
22013.6719	-68.491005
22016.6016	-68.503624
22019.5312	-68.515312
22022.4609	-68.528770
22025.3906	-68.544121
22028.3203	-68.569740
22031.2500	-68.593369
22034.1797	-68.601738
22037.1094	-68.605309
22040.0391	-68.607368
22042.9688	-68.613640
22045.8984	-68.619423
22048.8281	-68.626457
22051.7578	-68.643814
22054.6875	-68.658646
22057.6172	-68.665092
22060.5469	-68.668991
22063.4766	-68.672859
22066.4062	-68.684387
22069.3359	-68.698914
22072.2656	-68.705864
22075.1953	-68.711273
22078.1250	-68.722801
22081.0547	-68.738586
22083.9844	-68.751289
22086.9141	-68.758736
22089.8438	-68.767601
22092.7734	-68.777756
22095.7031	-68.790520
22098.6328	-68.807152
22101.5625	-68.818787
22104.4922	-68.826576
22107.4219	-68.834778
22110.3516	-68.844116
22113.2812	-68.855591
22116.2109	-68.872658
22119.1406	-68.891754
22122.0703	-68.897491
22125.0000	-68.903214
22127.9297	-68.918518
22130.8594	-68.935181
22133.7891	-68.956177
22136.7188	-68.976517
22139.6484	-68.989746
22142.5781	-68.998711
22145.5078	-69.015030
22148.4375	-69.029221
22151.3672	-69.037384
22154.2969	-69.048645
22157.2266	-69.058342
22160.1562	-69.072678
22163.0859	-69.087425
22166.0156	-69.100410
22168.9453	-69.122581
22171.8750	-69.149567
22174.8047	-69.163559
22177.7344	-69.176193
22180.6641	-69.195160
22183.5938	-69.205399
22186.5234	-69.218781
22189.4531	-69.242775
22192.3828	-69.259483
22195.3125	-69.266693
22198.2422	-69.283249
22201.1719	-69.306084
22204.1016	-69.319138
22207.0312	-69.324181
22209.9609	-69.331924
22212.8906	-69.340630
22215.8203	-69.344460
22218.7500	-69.349091
22221.6797	-69.364540
22224.6094	-69.377258
22227.5391	-69.380997
22230.4688	-69.388802
22233.3984	-69.402077
22236.3281	-69.414803
22239.2578	-69.421295
22242.1875	-69.428070
22245.1172	-69.438858
22248.0469	-69.451286
22250.9766	-69.457336
22253.9062	-69.456886
22256.8359	-69.462013
22259.7656	-69.476372
22262.6953	-69.490700
22265.6250	-69.501160
22268.5547	-69.512589
22271.4844	-69.525635
22274.4141	-69.540009
22277.3438	-69.554260
22280.2734	-69.569893
22283.2031	-69.583023
22286.1328	-69.587334
22289.0625	-69.593964
22291.9922	-69.605736
22294.9219	-69.613838
22297.8516	-69.627213
22300.7812	-69.644592
22303.7109	-69.655197
22306.6406	-69.665604
22309.5703	-69.685944
22312.5000	-69.713333
22315.4297	-69.731186
22318.3594	-69.739487
22321.2891	-69.752296
22324.2188	-69.767662
22327.1484	-69.776459
22330.0781	-69.779800
22333.0078	-69.783386
22335.9375	-69.793800
22338.8672	-69.808571
22341.7969	-69.821449
22344.7266	-69.836182
22347.6562	-69.851990
22350.5859	-69.864998
22353.5156	-69.875908
22356.4453	-69.882042
22359.3750	-69.889183
22362.3047	-69.898094
22365.2344	-69.908440
22368.1641	-69.921875
22371.0938	-69.929962
22374.0234	-69.940712
22376.9531	-69.961472
22379.8828	-69.978577
22382.8125	-69.987648
22385.7422	-69.996468
22388.6719	-70.011856
22391.6016	-70.030228
22394.5312	-70.041267
22397.4609	-70.049973
22400.3906	-70.065826
22403.3203	-70.080040
22406.2500	-70.091835
22409.1797	-70.107628
22412.1094	-70.121727
22415.0391	-70.139778
22417.9688	-70.163460
22420.8984	-70.183136
22423.8281	-70.193626
22426.7578	-70.197037
22429.6875	-70.205727
22432.6172	-70.221107
22435.5469	-70.237656
22438.4766	-70.256607
22441.4062	-70.274055
22444.3359	-70.293526
22447.2656	-70.321007
22450.1953	-70.336853
22453.1250	-70.341560
22456.0547	-70.358727
22458.9844	-70.382805
22461.9141	-70.396118
22464.8438	-70.404305
22467.7734	-70.413483
22470.7031	-70.424202
22473.6328	-70.437965
22476.5625	-70.446342
22479.4922	-70.448822
22482.4219	-70.453384
22485.3516	-70.465195
22488.2812	-70.478508
