;Freq(Hz)	Relative Amplitude (dB): Left
14293.9453	-91.177292
14296.8750	-91.061836
14299.8047	-91.055862
14302.7344	-91.003021
14305.6641	-90.898331
14308.5938	-90.941719
14311.5234	-91.140579
14314.4531	-91.396095
14317.3828	-91.484543
14320.3125	-91.397575
14323.2422	-91.372765
14326.1719	-91.344032
14329.1016	-91.261719
14332.0312	-91.333054
14334.9609	-91.479042
14337.8906	-91.544220
14340.8203	-91.646019
14343.7500	-91.758904
14346.6797	-91.812469
14349.6094	-91.794624
14352.5391	-91.849358
14355.4688	-92.001106
14358.3984	-92.051979
14361.3281	-92.146912
14364.2578	-92.173759
14367.1875	-92.104912
14370.1172	-92.209496
14373.0469	-92.277733
14375.9766	-92.276253
14378.9062	-92.341637
14381.8359	-92.287193
14384.7656	-92.321640
14387.6953	-92.463898
14390.6250	-92.381187
14393.5547	-92.238312
14396.4844	-92.399696
14399.4141	-92.676437
14402.3438	-92.581276
14405.2734	-92.484833
14408.2031	-92.700760
14411.1328	-92.823410
14414.0625	-92.852234
14416.9922	-92.870667
14419.9219	-92.901886
14422.8516	-93.134445
14425.7812	-93.193039
14428.7109	-93.090401
14431.6406	-93.318680
14434.5703	-93.463852
14437.5000	-93.292732
14440.4297	-93.260902
14443.3594	-93.367020
14446.2891	-93.372055
14449.2188	-93.303871
14452.1484	-93.410797
14455.0781	-93.707352
14458.0078	-93.768837
14460.9375	-93.714935
14463.8672	-93.868263
14466.7969	-94.006393
14469.7266	-93.984169
14472.6562	-94.186203
14475.5859	-94.468681
14478.5156	-94.405663
14481.4453	-94.241753
14484.3750	-94.379120
14487.3047	-94.504105
14490.2344	-94.573593
14493.1641	-94.935066
14496.0938	-95.107483
14499.0234	-94.920815
14501.9531	-94.938499
14504.8828	-94.983696
14507.8125	-95.070862
14510.7422	-95.267647
14513.6719	-95.315666
14516.6016	-95.243469
14519.5312	-95.194878
14522.4609	-95.313004
14525.3906	-95.263229
14528.3203	-95.339966
14531.2500	-95.850533
14534.1797	-96.005882
14537.1094	-95.871964
14540.0391	-95.921646
14542.9688	-95.825844
14545.8984	-95.640205
14548.8281	-95.882935
14551.7578	-96.154770
14554.6875	-96.377975
14557.6172	-96.860046
14560.5469	-96.913589
14563.4766	-96.906837
14566.4062	-96.987686
14569.3359	-97.117210
14572.2656	-97.338303
14575.1953	-97.438438
14578.1250	-97.335678
14581.0547	-97.067451
14583.9844	-97.188530
14586.9141	-97.539299
14589.8438	-97.952171
14592.7734	-98.399887
14595.7031	-98.609055
14598.6328	-98.316093
14601.5625	-97.965408
14604.4922	-98.362862
14607.4219	-98.848930
14610.3516	-98.743225
14613.2812	-98.972298
14616.2109	-99.324020
14619.1406	-99.068893
14622.0703	-98.977509
14625.0000	-99.576317
14627.9297	-100.137215
14630.8594	-100.352913
14633.7891	-100.367271
14636.7188	-100.250191
14639.6484	-100.627609
14642.5781	-101.531296
14645.5078	-101.905128
14648.4375	-101.459991
14651.3672	-101.454819
14654.2969	-102.085724
14657.2266	-102.434250
14660.1562	-102.731140
14663.0859	-103.015945
14666.0156	-102.825523
14668.9453	-102.818192
14671.8750	-103.201828
14674.8047	-103.577782
14677.7344	-103.771996
14680.6641	-103.968010
14683.5938	-104.029060
14686.5234	-103.854988
14689.4531	-104.017288
14692.3828	-104.122704
14695.3125	-104.747925
14698.2422	-106.346733
14701.1719	-107.574074
14704.1016	-107.859215
14707.0312	-107.433907
14709.9609	-107.946831
14712.8906	-110.159409
14715.8203	-111.119133
14718.7500	-110.140144
14721.6797	-110.601730
14724.6094	-110.951454
14727.5391	-110.419617
14730.4688	-111.302933
14733.3984	-110.667946
14736.3281	-110.066666
14739.2578	-110.879822
14742.1875	-111.734138
14745.1172	-113.728882
14748.0469	-112.615250
14750.9766	-109.111961
14753.9062	-109.052254
14756.8359	-110.514610
14759.7656	-110.397255
14762.6953	-110.755013
14765.6250	-111.509163
14768.5547	-111.074684
14771.4844	-110.825233
14774.4141	-111.823807
14777.3438	-110.993698
14780.2734	-108.370590
14783.2031	-106.897629
14786.1328	-107.552864
14789.0625	-107.598694
14791.9922	-106.358498
14794.9219	-105.930122
14797.8516	-105.788475
14800.7812	-105.781845
14803.7109	-106.090126
14806.6406	-105.002136
14809.5703	-103.545517
14812.5000	-103.161835
14815.4297	-102.742058
14818.3594	-102.357689
14821.2891	-102.310417
14824.2188	-102.143860
14827.1484	-101.520081
14830.0781	-100.784805
14833.0078	-100.141533
14835.9375	-99.876305
14838.8672	-99.649086
14841.7969	-99.296371
14844.7266	-99.110603
14847.6562	-99.211243
14850.5859	-99.564972
14853.5156	-99.447731
14856.4453	-98.258514
14859.3750	-97.273888
14862.3047	-97.564934
14865.2344	-97.954865
14868.1641	-97.577202
14871.0938	-97.235886
14874.0234	-96.902000
14876.9531	-96.540070
14879.8828	-96.353958
14882.8125	-96.112068
14885.7422	-95.808777
14888.6719	-95.604286
14891.6016	-95.545128
14894.5312	-95.511063
14897.4609	-95.164513
14900.3906	-94.734230
14903.3203	-94.487686
14906.2500	-94.205818
14909.1797	-94.197464
14912.1094	-94.106613
14915.0391	-93.694420
14917.9688	-93.587891
14920.8984	-93.599602
14923.8281	-93.520584
14926.7578	-93.243721
14929.6875	-92.919487
14932.6172	-92.664635
14935.5469	-92.295456
14938.4766	-92.120880
14941.4062	-92.220833
14944.3359	-92.121956
14947.2656	-91.871460
14950.1953	-91.678268
14953.1250	-91.470909
14956.0547	-91.254494
14958.9844	-91.102707
14961.9141	-91.101921
14964.8438	-90.990067
14967.7734	-90.682281
14970.7031	-90.500870
14973.6328	-90.343864
14976.5625	-90.130142
14979.4922	-90.029106
14982.4219	-89.931992
14985.3516	-89.618698
14988.2812	-89.350380
14991.2109	-89.281151
14994.1406	-89.230019
14997.0703	-89.129150
15000.0000	-89.003555
15002.9297	-88.812523
15005.8594	-88.579247
15008.7891	-88.433952
15011.7188	-88.274597
15014.6484	-88.025810
15017.5781	-87.843346
15020.5078	-87.740501
15023.4375	-87.579620
15026.3672	-87.374603
15029.2969	-87.295372
15032.2266	-87.279320
15035.1562	-87.138802
15038.0859	-86.881332
15041.0156	-86.662331
15043.9453	-86.603371
15046.8750	-86.519455
15049.8047	-86.340988
15052.7344	-86.222916
15055.6641	-86.114372
15058.5938	-85.934319
15061.5234	-85.773987
15064.4531	-85.556221
15067.3828	-85.383873
15070.3125	-85.312508
15073.2422	-85.172310
15076.1719	-85.022247
15079.1016	-84.893227
15082.0312	-84.748985
15084.9609	-84.588608
15087.8906	-84.356667
15090.8203	-84.173477
15093.7500	-84.122604
15096.6797	-84.037460
15099.6094	-83.876060
15102.5391	-83.744652
15105.4688	-83.566383
15108.3984	-83.367706
15111.3281	-83.264603
15114.2578	-83.137459
15117.1875	-82.953819
15120.1172	-82.808601
15123.0469	-82.704628
15125.9766	-82.580490
15128.9062	-82.445221
15131.8359	-82.324471
15134.7656	-82.175667
15137.6953	-82.027962
15140.6250	-81.854576
15143.5547	-81.669266
15146.4844	-81.534676
15149.4141	-81.392174
15152.3438	-81.240196
15155.2734	-81.115692
15158.2031	-81.035789
15161.1328	-80.937050
15164.0625	-80.807480
15166.9922	-80.657761
15169.9219	-80.413895
15172.8516	-80.207657
15175.7812	-80.103432
15178.7109	-80.005035
15181.6406	-79.894547
15184.5703	-79.764534
15187.5000	-79.605751
15190.4297	-79.474609
15193.3594	-79.342186
15196.2891	-79.189674
15199.2188	-79.036491
15202.1484	-78.883202
15205.0781	-78.733330
15208.0078	-78.591858
15210.9375	-78.460274
15213.8672	-78.312042
15216.7969	-78.148079
15219.7266	-78.003639
15222.6562	-77.838760
15225.5859	-77.674187
15228.5156	-77.551353
15231.4453	-77.410889
15234.3750	-77.237709
15237.3047	-77.062820
15240.2344	-76.880058
15243.1641	-76.698372
15246.0938	-76.544518
15249.0234	-76.401268
15251.9531	-76.237381
15254.8828	-76.066132
15257.8125	-75.893944
15260.7422	-75.701813
15263.6719	-75.548805
15266.6016	-75.399437
15269.5312	-75.180916
15272.4609	-74.980522
15275.3906	-74.830971
15278.3203	-74.642441
15281.2500	-74.421661
15284.1797	-74.238464
15287.1094	-74.043365
15290.0391	-73.853279
15292.9688	-73.679703
15295.8984	-73.476776
15298.8281	-73.271484
15301.7578	-73.063377
15304.6875	-72.850258
15307.6172	-72.639465
15310.5469	-72.407188
15313.4766	-72.158829
15316.4062	-71.928207
15319.3359	-71.715210
15322.2656	-71.479439
15325.1953	-71.221458
15328.1250	-70.978798
15331.0547	-70.749481
15333.9844	-70.504372
15336.9141	-70.254105
15339.8438	-70.007645
15342.7734	-69.749596
15345.7031	-69.497665
15348.6328	-69.232491
15351.5625	-68.959229
15354.4922	-68.707886
15357.4219	-68.427475
15360.3516	-68.116089
15363.2812	-67.818825
15366.2109	-67.514069
15369.1406	-67.178528
15372.0703	-66.844582
15375.0000	-66.506592
15377.9297	-66.151527
15380.8594	-65.797256
15383.7891	-65.426636
15386.7188	-65.040489
15389.6484	-64.648705
15392.5781	-64.235481
15395.5078	-63.807514
15398.4375	-63.365807
15401.3672	-62.887611
15404.2969	-62.394703
15407.2266	-61.901318
15410.1562	-61.374443
15413.0859	-60.814819
15416.0156	-60.238163
15418.9453	-59.629368
15421.8750	-58.988926
15424.8047	-58.337948
15427.7344	-57.671291
15430.6641	-56.982956
15433.5938	-56.280701
15436.5234	-55.579746
15439.4531	-54.921577
15442.3828	-54.338043
15445.3125	-53.866016
15448.2422	-53.552189
15451.1719	-53.404930
15454.1016	-53.413158
15457.0312	-53.636883
15459.9609	-54.049431
15462.8906	-54.565407
15465.8203	-55.141502
15468.7500	-55.748821
15471.6797	-56.369247
15474.6094	-56.996323
15477.5391	-57.619678
15480.4688	-58.231388
15483.3984	-58.816738
15486.3281	-59.360973
15489.2578	-59.873585
15492.1875	-60.363937
15495.1172	-60.838024
15498.0469	-61.296703
15500.9766	-61.722248
15503.9062	-62.139126
15506.8359	-62.556522
15509.7656	-62.929531
15512.6953	-63.276501
15515.6250	-63.618473
15518.5547	-63.951221
15521.4844	-64.263519
15524.4141	-64.567482
15527.3438	-64.860947
15530.2734	-65.120773
15533.2031	-65.376381
15536.1328	-65.648468
15539.0625	-65.905334
15541.9922	-66.146355
15544.9219	-66.380257
15547.8516	-66.602173
15550.7812	-66.820297
15553.7109	-67.043442
15556.6406	-67.261353
15559.5703	-67.464531
15562.5000	-67.656479
15565.4297	-67.848862
15568.3594	-68.040596
15571.2891	-68.215057
15574.2188	-68.390099
15577.1484	-68.565407
15580.0781	-68.739738
15583.0078	-68.916824
15585.9375	-69.073692
15588.8672	-69.224319
15591.7969	-69.382393
15594.7266	-69.541206
15597.6562	-69.694588
15600.5859	-69.826607
15603.5156	-69.970894
15606.4453	-70.135170
15609.3750	-70.262711
15612.3047	-70.367958
15615.2344	-70.492508
15618.1641	-70.627037
15621.0938	-70.769447
15624.0234	-70.911728
15626.9531	-71.025261
15629.8828	-71.145668
15632.8125	-71.280540
15635.7422	-71.389389
15638.6719	-71.480675
15641.6016	-71.574936
15644.5312	-71.684113
15647.4609	-71.787163
15650.3906	-71.884651
15653.3203	-71.977409
15656.2500	-72.060135
15659.1797	-72.170128
15662.1094	-72.282593
15665.0391	-72.367584
15667.9688	-72.453453
15670.8984	-72.549339
15673.8281	-72.635338
15676.7578	-72.725677
15679.6875	-72.816460
15682.6172	-72.893433
15685.5469	-72.965790
15688.4766	-73.036491
15691.4062	-73.109879
15694.3359	-73.189377
15697.2656	-73.271973
15700.1953	-73.351021
15703.1250	-73.437843
15706.0547	-73.520317
15708.9844	-73.608192
15711.9141	-73.697563
15714.8438	-73.762215
15717.7734	-73.839073
15720.7031	-73.921288
15723.6328	-73.985535
15726.5625	-74.069878
15729.4922	-74.145081
15732.4219	-74.180199
15735.3516	-74.244987
15738.2812	-74.326569
15741.2109	-74.390053
15744.1406	-74.465103
15747.0703	-74.542671
15750.0000	-74.622528
15752.9297	-74.703072
15755.8594	-74.755455
15758.7891	-74.785027
15761.7188	-74.846970
15764.6484	-74.924797
15767.5781	-74.950851
15770.5078	-75.014961
15773.4375	-75.131340
15776.3672	-75.178459
15779.2969	-75.204102
15782.2266	-75.263046
15785.1562	-75.322304
15788.0859	-75.367126
15791.0156	-75.412193
15793.9453	-75.462151
15796.8750	-75.485336
15799.8047	-75.525543
15802.7344	-75.604263
15805.6641	-75.668213
15808.5938	-75.706146
15811.5234	-75.727371
15814.4531	-75.775276
15817.3828	-75.857063
15820.3125	-75.916595
15823.2422	-75.950882
15826.1719	-75.998558
15829.1016	-76.074974
15832.0312	-76.133026
15834.9609	-76.160316
15837.8906	-76.210518
15840.8203	-76.294907
15843.7500	-76.348717
15846.6797	-76.374146
15849.6094	-76.411095
15852.5391	-76.434547
15855.4688	-76.474861
15858.3984	-76.537827
15861.3281	-76.585983
15864.2578	-76.632164
15867.1875	-76.666992
15870.1172	-76.700134
15873.0469	-76.735001
15875.9766	-76.773277
15878.9062	-76.801193
15881.8359	-76.836464
15884.7656	-76.901657
15887.6953	-76.943192
15890.6250	-76.956985
15893.5547	-77.007294
15896.4844	-77.066208
15899.4141	-77.099129
15902.3438	-77.127983
15905.2734	-77.175728
15908.2031	-77.216118
15911.1328	-77.242058
15914.0625	-77.280411
15916.9922	-77.324844
15919.9219	-77.340187
15922.8516	-77.337189
15925.7812	-77.370171
15928.7109	-77.436844
15931.6406	-77.494476
15934.5703	-77.521385
15937.5000	-77.536270
15940.4297	-77.564156
15943.3594	-77.608559
15946.2891	-77.638206
15949.2188	-77.652901
15952.1484	-77.701614
15955.0781	-77.766266
15958.0078	-77.807602
15960.9375	-77.848206
15963.8672	-77.900650
15966.7969	-77.919395
15969.7266	-77.938637
15972.6562	-77.989960
15975.5859	-78.033493
15978.5156	-78.081360
15981.4453	-78.124245
15984.3750	-78.143990
15987.3047	-78.136452
15990.2344	-78.136314
15993.1641	-78.144646
15996.0938	-78.156082
15999.0234	-78.222038
16001.9531	-78.270935
16004.8828	-78.268166
16007.8125	-78.295212
16010.7422	-78.329948
16013.6719	-78.353668
16016.6016	-78.363564
16019.5312	-78.399536
16022.4609	-78.467880
16025.3906	-78.495079
16028.3203	-78.515045
16031.2500	-78.540237
16034.1797	-78.557579
16037.1094	-78.608505
16040.0391	-78.634689
16042.9688	-78.619576
16045.8984	-78.643532
16048.8281	-78.729935
16051.7578	-78.781273
16054.6875	-78.765747
16057.6172	-78.776054
16060.5469	-78.814262
16063.4766	-78.861343
16066.4062	-78.932655
16069.3359	-78.975174
16072.2656	-78.937798
16075.1953	-78.961258
16078.1250	-79.012444
16081.0547	-78.976212
16083.9844	-79.022827
16086.9141	-79.102333
16089.8438	-79.098976
16092.7734	-79.101112
16095.7031	-79.133858
16098.6328	-79.183121
16101.5625	-79.224297
16104.4922	-79.239372
16107.4219	-79.248199
16110.3516	-79.262192
16113.2812	-79.297478
16116.2109	-79.303291
16119.1406	-79.264389
16122.0703	-79.289085
16125.0000	-79.386299
16127.9297	-79.420113
16130.8594	-79.381523
16133.7891	-79.381508
16136.7188	-79.422394
16139.6484	-79.463860
16142.5781	-79.497375
16145.5078	-79.542885
16148.4375	-79.541779
16151.3672	-79.497314
16154.2969	-79.521706
16157.2266	-79.595306
16160.1562	-79.639771
16163.0859	-79.672424
16166.0156	-79.751236
16168.9453	-79.757690
16171.8750	-79.712151
16174.8047	-79.762825
16177.7344	-79.787277
16180.6641	-79.749863
16183.5938	-79.760757
16186.5234	-79.814369
16189.4531	-79.842262
16192.3828	-79.854004
16195.3125	-79.861130
16198.2422	-79.904678
16201.1719	-80.000999
16204.1016	-80.000572
16207.0312	-79.963989
16209.9609	-80.003876
16212.8906	-80.015984
16215.8203	-79.993202
16218.7500	-80.023125
16221.6797	-80.073486
16224.6094	-80.088394
16227.5391	-80.099113
16230.4688	-80.171761
16233.3984	-80.260643
16236.3281	-80.253410
16239.2578	-80.175858
16242.1875	-80.175018
16245.1172	-80.245483
16248.0469	-80.255440
16250.9766	-80.296394
16253.9062	-80.373840
16256.8359	-80.348801
16259.7656	-80.351280
16262.6953	-80.440239
16265.6250	-80.494980
16268.5547	-80.495888
16271.4844	-80.452888
16274.4141	-80.405006
16277.3438	-80.439148
16280.2734	-80.503395
16283.2031	-80.511703
16286.1328	-80.518044
16289.0625	-80.531799
16291.9922	-80.519768
16294.9219	-80.541840
16297.8516	-80.570587
16300.7812	-80.599770
16303.7109	-80.666954
16306.6406	-80.705368
16309.5703	-80.717873
16312.5000	-80.737755
16315.4297	-80.752296
16318.3594	-80.741577
16321.2891	-80.714127
16324.2188	-80.710419
16327.1484	-80.783524
16330.0781	-80.911438
16333.0078	-80.934471
16335.9375	-80.790421
16338.8672	-80.777084
16341.7969	-80.917343
16344.7266	-80.935135
16347.6562	-80.924675
16350.5859	-80.974869
16353.5156	-80.943275
16356.4453	-80.940460
16359.3750	-81.015877
16362.3047	-81.051041
16365.2344	-81.022766
16368.1641	-80.993401
16371.0938	-80.972778
16374.0234	-80.940521
16376.9531	-81.004547
16379.8828	-81.121033
16382.8125	-81.132912
16385.7422	-81.112022
16388.6719	-81.114304
16391.6016	-81.129898
16394.5312	-81.165085
16397.4609	-81.226051
16400.3906	-81.249825
16403.3203	-81.219353
16406.2500	-81.230011
16409.1797	-81.224686
16412.1094	-81.211853
16415.0391	-81.301132
16417.9688	-81.382874
16420.8984	-81.373009
16423.8281	-81.357483
16426.7578	-81.396637
16429.6875	-81.422188
16432.6172	-81.412079
16435.5469	-81.463875
16438.4766	-81.501106
16441.4062	-81.412468
16444.3359	-81.336151
16447.2656	-81.416183
16450.1953	-81.463341
16453.1250	-81.412331
16456.0547	-81.422073
16458.9844	-81.464279
16461.9141	-81.485680
16464.8438	-81.525795
16467.7734	-81.561005
16470.7031	-81.596146
16473.6328	-81.594406
16476.5625	-81.583900
16479.4922	-81.645927
16482.4219	-81.710785
16485.3516	-81.670097
16488.2812	-81.603386
16491.2109	-81.633598
16494.1406	-81.647644
16497.0703	-81.633507
16500.0000	-81.671341
16502.9297	-81.690109
16505.8594	-81.694267
16508.7891	-81.743973
16511.7188	-81.763367
16514.6484	-81.739426
16517.5781	-81.780556
16520.5078	-81.849052
16523.4375	-81.860130
16526.3672	-81.827469
16529.2969	-81.797447
16532.2266	-81.773560
16535.1562	-81.800278
16538.0859	-81.883163
16541.0156	-81.895233
16543.9453	-81.869461
16546.8750	-81.867668
16549.8047	-81.867493
16552.7344	-81.896675
16555.6641	-81.964996
16558.5938	-81.991264
16561.5234	-81.966927
16564.4531	-81.990868
16567.3828	-82.072144
16570.3125	-82.102814
16573.2422	-82.085548
16576.1719	-82.104118
16579.1016	-82.126137
16582.0312	-82.102875
16584.9609	-82.087456
16587.8906	-82.114403
16590.8203	-82.140610
16593.7500	-82.137901
16596.6797	-82.145813
16599.6094	-82.174576
16602.5391	-82.208931
16605.4688	-82.174698
16608.3984	-82.161621
16611.3281	-82.249382
16614.2578	-82.243835
16617.1875	-82.192520
16620.1172	-82.243752
16623.0469	-82.304543
16625.9766	-82.283539
16628.9062	-82.283844
16631.8359	-82.333511
16634.7656	-82.345993
16637.6953	-82.387085
16640.6250	-82.423637
16643.5547	-82.413406
16646.4844	-82.446091
16649.4141	-82.453041
16652.3438	-82.385689
16655.2734	-82.315765
16658.2031	-82.315247
16661.1328	-82.405556
16664.0625	-82.461266
16666.9922	-82.391357
16669.9219	-82.350777
16672.8516	-82.450310
16675.7812	-82.508476
16678.7109	-82.490479
16681.6406	-82.522636
16684.5703	-82.599251
16687.5000	-82.635529
16690.4297	-82.614082
16693.3594	-82.623665
16696.2891	-82.598572
16699.2188	-82.569733
16702.1484	-82.607918
16705.0781	-82.610878
16708.0078	-82.562874
16710.9375	-82.620750
16713.8672	-82.652405
16716.7969	-82.582809
16719.7266	-82.643257
16722.6562	-82.655029
16725.5859	-82.602722
16728.5156	-82.681252
16731.4453	-82.730247
16734.3750	-82.732361
16737.3047	-82.689812
16740.2344	-82.655617
16743.1641	-82.720169
16746.0938	-82.796089
16749.0234	-82.798401
16751.9531	-82.840416
16754.8828	-82.935974
16757.8125	-82.926643
16760.7422	-82.920334
16763.6719	-82.923012
16766.6016	-82.877106
16769.5312	-82.901085
16772.4609	-82.916565
16775.3906	-82.903732
16778.3203	-82.924377
16781.2500	-82.935478
16784.1797	-82.938164
16787.1094	-82.940842
16790.0391	-82.954849
16792.9688	-82.960869
16795.8984	-82.987648
16798.8281	-83.017899
16801.7578	-83.014618
16804.6875	-83.025200
16807.6172	-83.068649
16810.5469	-83.033348
16813.4766	-83.075516
16816.4062	-83.208824
16819.3359	-83.204185
16822.2656	-83.065948
16825.1953	-83.029137
16828.1250	-83.108330
16831.0547	-83.188690
16833.9844	-83.304680
16836.9141	-83.310493
16839.8438	-83.161552
16842.7734	-83.084930
16845.7031	-83.143044
16848.6328	-83.281021
16851.5625	-83.322945
16854.4922	-83.290077
16857.4219	-83.284767
16860.3516	-83.260399
16863.2812	-83.217293
16866.2109	-83.202454
16869.1406	-83.237808
16872.0703	-83.345947
16875.0000	-83.458000
16877.9297	-83.411331
16880.8594	-83.268669
16883.7891	-83.272125
16886.7188	-83.440491
16889.6484	-83.426476
16892.5781	-83.301376
16895.5078	-83.355743
16898.4375	-83.408936
16901.3672	-83.454689
16904.2969	-83.469032
16907.2266	-83.425591
16910.1562	-83.433388
16913.0859	-83.423485
16916.0156	-83.460182
16918.9453	-83.506897
16921.8750	-83.535416
16924.8047	-83.507553
16927.7344	-83.391342
16930.6641	-83.509811
16933.5938	-83.610138
16936.5234	-83.575348
16939.4531	-83.640068
16942.3828	-83.641823
16945.3125	-83.581566
16948.2422	-83.580627
16951.1719	-83.598068
16954.1016	-83.625633
16957.0312	-83.586914
16959.9609	-83.565491
16962.8906	-83.645630
16965.8203	-83.726357
16968.7500	-83.740448
16971.6797	-83.740219
16974.6094	-83.799141
16977.5391	-83.769661
16980.4688	-83.746941
16983.3984	-83.797234
16986.3281	-83.755112
16989.2578	-83.756035
16992.1875	-83.831909
16995.1172	-83.765381
16998.0469	-83.699463
17000.9766	-83.797729
17003.9062	-83.810417
17006.8359	-83.703995
17009.7656	-83.701401
17012.6953	-83.784668
17015.6250	-83.881096
17018.5547	-83.885147
17021.4844	-83.780846
17024.4141	-83.764656
17027.3438	-83.747932
17030.2734	-83.746307
17033.2031	-83.882767
17036.1328	-83.973900
17039.0625	-84.058205
17041.9922	-84.117767
17044.9219	-84.099876
17047.8516	-84.080849
17050.7812	-83.980637
17053.7109	-83.982513
17056.6406	-84.022156
17059.5703	-83.902031
17062.5000	-83.831131
17065.4297	-83.918983
17068.3594	-84.059044
17071.2891	-84.095467
17074.2188	-84.005669
17077.1484	-83.976913
17080.0781	-84.011726
17083.0078	-84.065338
17085.9375	-84.086823
17088.8672	-84.044533
17091.7969	-84.108238
17094.7266	-84.294678
17097.6562	-84.344765
17100.5859	-84.227493
17103.5156	-84.134384
17106.4453	-84.046844
17109.3750	-84.053497
17112.3047	-84.158600
17115.2344	-84.251175
17118.1641	-84.288200
17121.0938	-84.180313
17124.0234	-84.112976
17126.9531	-84.179878
17129.8828	-84.298164
17132.8125	-84.390892
17135.7422	-84.434593
17138.6719	-84.453323
17141.6016	-84.432709
17144.5312	-84.451744
17147.4609	-84.452644
17150.3906	-84.405060
17153.3203	-84.390121
17156.2500	-84.441734
17159.1797	-84.514580
17162.1094	-84.436020
17165.0391	-84.386650
17167.9688	-84.453140
17170.8984	-84.485954
17173.8281	-84.655716
17176.7578	-84.731087
17179.6875	-84.623718
17182.6172	-84.616783
17185.5469	-84.621254
17188.4766	-84.560020
17191.4062	-84.570694
17194.3359	-84.631645
17197.2656	-84.542892
17200.1953	-84.497726
17203.1250	-84.626022
17206.0547	-84.612228
17208.9844	-84.573952
17211.9141	-84.689644
17214.8438	-84.726295
17217.7734	-84.752380
17220.7031	-84.782822
17223.6328	-84.740440
17226.5625	-84.731369
17229.4922	-84.735634
17232.4219	-84.745110
17235.3516	-84.746071
17238.2812	-84.761688
17241.2109	-84.749008
17244.1406	-84.664101
17247.0703	-84.693626
17250.0000	-84.792160
17252.9297	-84.824486
17255.8594	-84.912697
17258.7891	-84.945190
17261.7188	-84.883553
17264.6484	-84.907814
17267.5781	-84.964630
17270.5078	-84.950516
17273.4375	-84.883232
17276.3672	-84.827553
17279.2969	-84.911659
17282.2266	-84.913635
17285.1562	-84.793091
17288.0859	-84.789139
17291.0156	-84.882217
17293.9453	-84.901672
17296.8750	-84.867165
17299.8047	-84.900612
17302.7344	-85.033302
17305.6641	-85.053513
17308.5938	-84.998924
17311.5234	-85.022751
17314.4531	-85.028633
17317.3828	-85.006203
17320.3125	-85.027260
17323.2422	-85.102661
17326.1719	-85.142654
17329.1016	-85.127861
17332.0312	-85.033951
17334.9609	-85.019058
17337.8906	-85.135513
17340.8203	-85.143578
17343.7500	-85.167732
17346.6797	-85.244637
17349.6094	-85.186928
17352.5391	-85.253380
17355.4688	-85.381638
17358.3984	-85.189507
17361.3281	-85.074631
17364.2578	-85.332535
17367.1875	-85.504097
17370.1172	-85.341629
17373.0469	-85.265793
17375.9766	-85.491631
17378.9062	-85.651039
17381.8359	-85.491562
17384.7656	-85.248161
17387.6953	-85.243111
17390.6250	-85.325882
17393.5547	-85.394615
17396.4844	-85.467682
17399.4141	-85.411324
17402.3438	-85.473450
17405.2734	-85.597931
17408.2031	-85.556450
17411.1328	-85.477440
17414.0625	-85.495720
17416.9922	-85.505730
17419.9219	-85.591881
17422.8516	-85.648140
17425.7812	-85.496094
17428.7109	-85.466705
17431.6406	-85.549950
17434.5703	-85.671822
17437.5000	-85.739555
17440.4297	-85.606171
17443.3594	-85.598778
17446.2891	-85.738663
17449.2188	-85.745811
17452.1484	-85.716866
17455.0781	-85.800453
17458.0078	-85.870506
17460.9375	-85.802856
17463.8672	-85.674133
17466.7969	-85.602715
17469.7266	-85.610245
17472.6562	-85.661476
17475.5859	-85.668503
17478.5156	-85.806023
17481.4453	-85.989128
17484.3750	-85.877296
17487.3047	-85.784439
17490.2344	-85.894356
17493.1641	-85.909851
17496.0938	-85.839645
17499.0234	-85.782562
17501.9531	-85.641273
17504.8828	-85.613792
17507.8125	-85.807259
17510.7422	-85.936852
17513.6719	-85.930283
17516.6016	-85.812286
17519.5312	-85.888550
17522.4609	-85.979881
17525.3906	-85.988312
17528.3203	-86.019112
17531.2500	-85.958458
17534.1797	-85.887489
17537.1094	-86.026253
17540.0391	-86.143478
17542.9688	-86.016701
17545.8984	-86.042130
17548.8281	-86.187576
17551.7578	-86.073898
17554.6875	-85.744331
17557.6172	-85.790237
17560.5469	-86.126976
