;Freq(Hz)	Relative Amplitude (dB): Left
18339.8438	-94.703812
18342.7734	-94.777657
18345.7031	-94.964516
18348.6328	-94.913940
18351.5625	-94.743179
18354.4922	-94.713440
18357.4219	-94.770203
18360.3516	-94.871300
18363.2812	-94.896263
18366.2109	-94.798912
18369.1406	-94.792435
18372.0703	-94.881676
18375.0000	-94.891518
18377.9297	-94.832108
18380.8594	-94.816376
18383.7891	-94.864876
18386.7188	-94.908127
18389.6484	-94.928993
18392.5781	-95.012550
18395.5078	-95.131081
18398.4375	-95.134789
18401.3672	-95.042549
18404.2969	-95.048134
18407.2266	-95.126671
18410.1562	-95.107330
18413.0859	-95.052124
18416.0156	-95.020782
18418.9453	-95.050453
18421.8750	-95.126686
18424.8047	-95.123642
18427.7344	-95.132416
18430.6641	-95.158783
18433.5938	-95.074196
18436.5234	-95.066635
18439.4531	-95.167145
18442.3828	-95.209473
18445.3125	-95.210167
18448.2422	-95.174950
18451.1719	-95.200348
18454.1016	-95.280251
18457.0312	-95.314194
18459.9609	-95.230225
18462.8906	-95.135841
18465.8203	-95.181389
18468.7500	-95.242668
18471.6797	-95.241524
18474.6094	-95.214531
18477.5391	-95.267532
18480.4688	-95.319168
18483.3984	-95.272514
18486.3281	-95.308258
18489.2578	-95.397491
18492.1875	-95.429321
18495.1172	-95.468361
18498.0469	-95.436188
18500.9766	-95.320915
18503.9062	-95.302742
18506.8359	-95.485985
18509.7656	-95.617973
18512.6953	-95.539940
18515.6250	-95.464912
18518.5547	-95.512947
18521.4844	-95.554733
18524.4141	-95.588692
18527.3438	-95.671524
18530.2734	-95.714050
18533.2031	-95.593964
18536.1328	-95.473869
18539.0625	-95.531387
18541.9922	-95.602661
18544.9219	-95.569130
18547.8516	-95.577560
18550.7812	-95.621140
18553.7109	-95.604393
18556.6406	-95.484879
18559.5703	-95.487930
18562.5000	-95.634430
18565.4297	-95.684929
18568.3594	-95.657349
18571.2891	-95.670563
18574.2188	-95.723808
18577.1484	-95.806503
18580.0781	-95.833092
18583.0078	-95.756424
18585.9375	-95.807617
18588.8672	-95.882538
18591.7969	-95.838531
18594.7266	-95.855339
18597.6562	-95.847816
18600.5859	-95.790955
18603.5156	-95.826286
18606.4453	-95.860680
18609.3750	-95.923203
18612.3047	-96.018211
18615.2344	-96.012932
18618.1641	-95.995453
18621.0938	-95.954536
18624.0234	-95.901367
18626.9531	-95.935715
18629.8828	-95.978325
18632.8125	-96.017632
18635.7422	-95.953239
18638.6719	-95.908508
18641.6016	-96.037529
18644.5312	-96.176781
18647.4609	-96.189674
18650.3906	-96.163849
18653.3203	-96.161659
18656.2500	-96.162628
18659.1797	-96.193176
18662.1094	-96.180214
18665.0391	-96.072174
18667.9688	-95.996666
18670.8984	-96.073792
18673.8281	-96.159225
18676.7578	-96.097801
18679.6875	-96.082100
18682.6172	-96.170135
18685.5469	-96.259056
18688.4766	-96.382263
18691.4062	-96.482498
18694.3359	-96.492249
18697.2656	-96.475777
18700.1953	-96.382019
18703.1250	-96.256783
18706.0547	-96.271019
18708.9844	-96.394661
18711.9141	-96.491631
18714.8438	-96.499268
18717.7734	-96.452942
18720.7031	-96.446678
18723.6328	-96.523857
18726.5625	-96.520943
18729.4922	-96.468346
18732.4219	-96.565674
18735.3516	-96.640007
18738.2812	-96.623100
18741.2109	-96.641510
18744.1406	-96.653061
18747.0703	-96.671478
18750.0000	-96.711159
18752.9297	-96.736084
18755.8594	-96.735558
18758.7891	-96.675682
18761.7188	-96.620102
18764.6484	-96.705475
18767.5781	-96.809517
18770.5078	-96.748245
18773.4375	-96.775566
18776.3672	-96.905998
18779.2969	-96.899902
18782.2266	-96.873955
18785.1562	-96.991135
18788.0859	-97.051682
18791.0156	-96.878471
18793.9453	-96.849289
18796.8750	-96.922539
18799.8047	-96.886330
18802.7344	-96.963303
18805.6641	-97.109985
18808.5938	-97.058327
18811.5234	-96.877922
18814.4531	-96.928841
18817.3828	-97.106232
18820.3125	-97.102264
18823.2422	-97.092300
18826.1719	-97.129929
18829.1016	-97.151268
18832.0312	-97.251015
18834.9609	-97.314018
18837.8906	-97.281387
18840.8203	-97.286133
18843.7500	-97.313309
18846.6797	-97.268303
18849.6094	-97.242271
18852.5391	-97.268990
18855.4688	-97.309288
18858.3984	-97.344566
18861.3281	-97.317192
18864.2578	-97.371307
18867.1875	-97.406815
18870.1172	-97.343796
18873.0469	-97.387436
18875.9766	-97.482536
18878.9062	-97.554413
18881.8359	-97.443642
18884.7656	-97.350113
18887.6953	-97.501106
18890.6250	-97.640381
18893.5547	-97.578560
18896.4844	-97.473747
18899.4141	-97.605774
18902.3438	-97.803467
18905.2734	-97.781326
18908.2031	-97.694038
18911.1328	-97.754295
18914.0625	-97.832100
18916.9922	-97.798996
18919.9219	-97.744492
18922.8516	-97.815735
18925.7812	-97.901405
18928.7109	-97.916199
18931.6406	-97.950569
18934.5703	-97.890533
18937.5000	-97.846260
18940.4297	-97.991798
18943.3594	-98.165520
18946.2891	-98.127373
18949.2188	-97.984581
18952.1484	-97.951630
18955.0781	-98.105621
18958.0078	-98.304611
18960.9375	-98.282494
18963.8672	-98.168663
18966.7969	-98.185669
18969.7266	-98.149200
18972.6562	-98.106201
18975.5859	-98.223701
18978.5156	-98.287094
18981.4453	-98.251450
18984.3750	-98.204247
18987.3047	-98.253098
18990.2344	-98.321953
18993.1641	-98.367821
18996.0938	-98.349655
18999.0234	-98.276917
19001.9531	-98.367874
19004.8828	-98.496353
19007.8125	-98.536568
19010.7422	-98.563118
19013.6719	-98.624794
19016.6016	-98.641045
19019.5312	-98.538216
19022.4609	-98.529732
19025.3906	-98.713272
19028.3203	-98.808479
19031.2500	-98.632164
19034.1797	-98.566284
19037.1094	-98.745277
19040.0391	-98.814949
19042.9688	-98.736893
19045.8984	-98.666069
19048.8281	-98.784836
19051.7578	-99.009773
19054.6875	-99.042274
19057.6172	-98.953674
19060.5469	-98.987106
19063.4766	-99.120125
19066.4062	-99.124687
19069.3359	-99.100273
19072.2656	-99.147278
19075.1953	-99.168800
19078.1250	-99.220787
19081.0547	-99.222984
19083.9844	-99.160835
19086.9141	-99.252541
19089.8438	-99.381432
19092.7734	-99.288788
19095.7031	-99.137794
19098.6328	-99.271599
19101.5625	-99.476868
19104.4922	-99.510246
19107.4219	-99.673805
19110.3516	-99.807686
19113.2812	-99.693275
19116.2109	-99.528229
19119.1406	-99.513947
19122.0703	-99.648788
19125.0000	-99.546593
19127.9297	-99.389130
19130.8594	-99.606323
19133.7891	-99.761284
19136.7188	-99.723038
19139.6484	-99.919685
19142.5781	-99.905640
19145.5078	-99.572548
19148.4375	-99.733940
19151.3672	-100.058731
19154.2969	-99.974785
19157.2266	-100.092682
19160.1562	-100.292046
19163.0859	-100.200668
19166.0156	-100.149696
19168.9453	-100.122971
19171.8750	-100.061386
19174.8047	-100.052864
19177.7344	-100.078766
19180.6641	-100.162430
19183.5938	-100.267380
19186.5234	-100.482597
19189.4531	-100.567116
19192.3828	-100.395500
19195.3125	-100.309799
19198.2422	-100.431145
19201.1719	-100.491966
19204.1016	-100.570808
19207.0312	-100.628654
19209.9609	-100.661316
19212.8906	-100.826759
19215.8203	-100.978897
19218.7500	-100.932228
19221.6797	-100.773636
19224.6094	-100.857536
19227.5391	-101.105461
19230.4688	-101.045525
19233.3984	-100.899529
19236.3281	-100.954659
19239.2578	-101.148888
19242.1875	-101.402031
19245.1172	-101.568985
19248.0469	-101.649895
19250.9766	-101.675362
19253.9062	-101.727333
19256.8359	-101.610847
19259.7656	-101.479057
19262.6953	-101.621590
19265.6250	-101.650421
19268.5547	-101.670372
19271.4844	-101.811966
19274.4141	-101.941422
19277.3438	-102.016975
19280.2734	-102.338013
19283.2031	-102.998596
19286.1328	-102.897255
19289.0625	-102.471062
19291.9922	-102.234894
19294.9219	-101.706078
19297.8516	-101.624504
19300.7812	-102.079849
19303.7109	-102.396912
19306.6406	-102.559906
19309.5703	-102.607742
19312.5000	-102.597481
19315.4297	-102.651230
19318.3594	-102.825516
19321.2891	-102.884308
19324.2188	-102.964989
19327.1484	-103.179497
19330.0781	-103.087997
19333.0078	-102.991371
19335.9375	-103.191628
19338.8672	-103.328369
19341.7969	-103.172569
19344.7266	-103.170708
19347.6562	-103.618713
19350.5859	-103.858116
19353.5156	-103.642685
19356.4453	-103.628334
19359.3750	-103.701263
19362.3047	-103.765450
19365.2344	-103.916687
19368.1641	-103.753189
19371.0938	-103.673340
19374.0234	-103.868408
19376.9531	-104.378853
19379.8828	-104.487366
19382.8125	-103.552155
19385.7422	-103.570259
19388.6719	-104.447037
19391.6016	-104.623703
19394.5312	-104.719215
19397.4609	-104.843216
19400.3906	-104.766174
19403.3203	-104.822601
19406.2500	-105.049271
19409.1797	-105.285797
19412.1094	-105.331215
19415.0391	-105.178917
19417.9688	-105.021957
19420.8984	-105.132271
19423.8281	-105.758133
19426.7578	-106.551239
19429.6875	-106.661842
19432.6172	-106.201759
19435.5469	-106.007797
19438.4766	-106.114044
19441.4062	-106.387863
19444.3359	-106.590004
19447.2656	-106.732986
19450.1953	-106.900291
19453.1250	-106.860352
19456.0547	-106.827904
19458.9844	-107.021561
19461.9141	-107.297485
19464.8438	-107.231804
19467.7734	-107.267830
19470.7031	-107.566742
19473.6328	-107.673111
19476.5625	-107.627640
19479.4922	-107.702744
19482.4219	-107.628616
19485.3516	-107.684860
19488.2812	-107.864937
19491.2109	-108.244225
19494.1406	-108.952621
19497.0703	-109.166603
19500.0000	-109.161461
19502.9297	-109.320869
19505.8594	-109.225990
19508.7891	-109.296829
19511.7188	-109.707848
19514.6484	-109.860497
19517.5781	-110.033356
19520.5078	-110.392876
19523.4375	-110.927368
19526.3672	-111.307510
19529.2969	-111.278099
19532.2266	-111.209663
19535.1562	-111.272652
19538.0859	-111.580658
19541.0156	-111.914383
19543.9453	-111.455551
19546.8750	-111.241592
19549.8047	-111.954002
19552.7344	-112.502037
19555.6641	-112.707474
19558.5938	-113.113991
19561.5234	-113.946281
19564.4531	-114.269363
19567.3828	-114.251717
19570.3125	-115.466408
19573.2422	-116.575356
19576.1719	-115.964851
19579.1016	-115.142868
19582.0312	-115.083435
19584.9609	-115.921341
19587.8906	-117.315842
19590.8203	-118.160843
19593.7500	-117.203987
19596.6797	-117.016380
19599.6094	-119.159409
19602.5391	-120.991096
19605.4688	-121.170052
19608.3984	-120.884972
19611.3281	-119.469315
19614.2578	-119.446556
19617.1875	-122.562469
19620.1172	-126.724930
19623.0469	-125.599373
19625.9766	-122.354790
19628.9062	-121.947220
19631.8359	-122.733887
19634.7656	-120.977325
19637.6953	-120.429199
19640.6250	-121.437851
19643.5547	-121.684586
19646.4844	-122.185059
19649.4141	-121.576035
19652.3438	-119.555435
19655.2734	-118.430214
19658.2031	-117.378632
19661.1328	-116.676247
19664.0625	-116.161407
19666.9922	-115.717262
19669.9219	-115.893326
19672.8516	-115.895256
19675.7812	-114.966316
19678.7109	-114.229630
19681.6406	-113.919250
19684.5703	-114.021317
19687.5000	-113.596207
19690.4297	-112.885063
19693.3594	-112.052025
19696.2891	-111.604378
19699.2188	-112.002533
19702.1484	-111.866600
19705.0781	-111.005035
19708.0078	-110.822166
19710.9375	-110.863937
19713.8672	-110.087860
19716.7969	-109.502251
19719.7266	-109.563103
19722.6562	-109.714844
19725.5859	-109.565559
19728.5156	-109.093353
19731.4453	-108.665688
19734.3750	-108.492401
19737.3047	-108.158829
19740.2344	-107.897789
19743.1641	-108.002724
19746.0938	-107.928589
19749.0234	-107.316299
19751.9531	-106.835358
19754.8828	-106.557655
19757.8125	-106.319565
19760.7422	-106.089165
19763.6719	-105.696548
19766.6016	-105.475861
19769.5312	-105.434715
19772.4609	-105.279274
19775.3906	-104.903381
19778.3203	-104.799393
19781.2500	-104.939156
19784.1797	-104.478996
19787.1094	-103.962204
19790.0391	-103.883263
19792.9688	-103.566856
19795.8984	-103.071533
19798.8281	-103.004791
19801.7578	-102.885239
19804.6875	-102.683922
19807.6172	-102.780426
19810.5469	-102.853653
19813.4766	-102.685005
19816.4062	-102.335892
19819.3359	-102.121704
19822.2656	-102.128349
19825.1953	-102.000435
19828.1250	-101.830086
19831.0547	-101.701668
19833.9844	-101.455452
19836.9141	-101.165359
19839.8438	-100.936501
19842.7734	-100.818130
19845.7031	-100.764313
19848.6328	-100.785263
19851.5625	-100.714996
19854.4922	-100.481750
19857.4219	-100.245232
19860.3516	-99.943115
19863.2812	-99.661568
19866.2109	-99.529259
19869.1406	-99.479927
19872.0703	-99.434387
19875.0000	-99.255852
19877.9297	-99.099472
19880.8594	-99.099442
19883.7891	-99.020805
19886.7188	-98.810799
19889.6484	-98.623489
19892.5781	-98.396278
19895.5078	-98.224350
19898.4375	-98.238525
19901.3672	-98.157570
19904.2969	-97.927879
19907.2266	-97.775475
19910.1562	-97.740265
19913.0859	-97.579994
19916.0156	-97.362061
19918.9453	-97.295265
19921.8750	-97.130074
19924.8047	-96.915131
19927.7344	-96.925568
19930.6641	-96.899948
19933.5938	-96.679985
19936.5234	-96.469025
19939.4531	-96.292282
19942.3828	-96.158195
19945.3125	-96.039665
19948.2422	-95.912392
19951.1719	-95.828064
19954.1016	-95.801575
19957.0312	-95.753052
19959.9609	-95.553215
19962.8906	-95.350464
19965.8203	-95.205414
19968.7500	-95.105415
19971.6797	-95.010017
19974.6094	-94.907913
19977.5391	-94.731552
19980.4688	-94.606827
19983.3984	-94.537605
19986.3281	-94.293221
19989.2578	-94.087616
19992.1875	-94.033134
19995.1172	-93.937653
19998.0469	-93.796471
20000.9766	-93.686699
20003.9062	-93.581383
20006.8359	-93.408379
20009.7656	-93.206902
20012.6953	-93.079102
20015.6250	-93.040222
20018.5547	-92.952171
20021.4844	-92.779434
20024.4141	-92.636276
20027.3438	-92.538582
20030.2734	-92.453476
20033.2031	-92.305443
20036.1328	-92.150780
20039.0625	-92.082222
20041.9922	-92.008781
20044.9219	-91.885422
20047.8516	-91.748062
20050.7812	-91.628799
20053.7109	-91.543709
20056.6406	-91.423134
20059.5703	-91.287613
20062.5000	-91.165230
20065.4297	-90.992989
20068.3594	-90.850777
20071.2891	-90.744896
20074.2188	-90.611099
20077.1484	-90.538979
20080.0781	-90.511154
20083.0078	-90.386826
20085.9375	-90.215652
20088.8672	-90.091736
20091.7969	-89.995811
20094.7266	-89.890060
20097.6562	-89.707436
20100.5859	-89.509331
20103.5156	-89.392044
20106.4453	-89.301056
20109.3750	-89.201134
20112.3047	-89.079742
20115.2344	-88.945900
20118.1641	-88.845558
20121.0938	-88.759750
20124.0234	-88.632324
20126.9531	-88.477959
20129.8828	-88.352493
20132.8125	-88.251930
20135.7422	-88.137207
20138.6719	-88.004593
20141.6016	-87.866074
20144.5312	-87.775139
20147.4609	-87.653252
20150.3906	-87.480965
20153.3203	-87.317970
20156.2500	-87.171700
20159.1797	-87.032539
20162.1094	-86.899300
20165.0391	-86.774147
20167.9688	-86.623985
20170.8984	-86.439247
20173.8281	-86.309227
20176.7578	-86.201942
20179.6875	-86.052391
20182.6172	-85.915611
20185.5469	-85.786575
20188.4766	-85.641350
20191.4062	-85.492058
20194.3359	-85.340118
20197.2656	-85.195328
20200.1953	-85.076149
20203.1250	-84.929634
20206.0547	-84.754974
20208.9844	-84.610237
20211.9141	-84.472832
20214.8438	-84.310837
20217.7734	-84.150475
20220.7031	-84.009995
20223.6328	-83.873039
20226.5625	-83.738609
20229.4922	-83.573486
20232.4219	-83.384544
20235.3516	-83.226494
20238.2812	-83.076630
20241.2109	-82.930931
20244.1406	-82.801003
20247.0703	-82.635742
20250.0000	-82.442413
20252.9297	-82.272789
20255.8594	-82.104614
20258.7891	-81.933067
20261.7188	-81.766533
20264.6484	-81.604347
20267.5781	-81.446793
20270.5078	-81.270348
20273.4375	-81.086349
20276.3672	-80.889313
20279.2969	-80.672798
20282.2266	-80.469452
20285.1562	-80.285805
20288.0859	-80.111961
20291.0156	-79.930771
20293.9453	-79.719284
20296.8750	-79.503319
20299.8047	-79.309082
20302.7344	-79.122040
20305.6641	-78.916763
20308.5938	-78.691231
20311.5234	-78.472794
20314.4531	-78.254921
20317.3828	-78.021271
20320.3125	-77.782387
20323.2422	-77.540497
20326.1719	-77.297501
20329.1016	-77.068535
20332.0312	-76.838608
20334.9609	-76.595932
20337.8906	-76.362877
20340.8203	-76.118752
20343.7500	-75.846069
20346.6797	-75.572556
20349.6094	-75.302414
20352.5391	-75.022072
20355.4688	-74.727493
20358.3984	-74.430290
20361.3281	-74.120804
20364.2578	-73.803185
20367.1875	-73.490616
20370.1172	-73.161697
20373.0469	-72.832802
20375.9766	-72.490196
20378.9062	-72.127151
20381.8359	-71.770798
20384.7656	-71.398926
20387.6953	-71.009331
20390.6250	-70.590546
20393.5547	-70.149620
20396.4844	-69.716042
20399.4141	-69.277168
20402.3438	-68.805092
20405.2734	-68.312553
20408.2031	-67.821083
20411.1328	-67.306519
20414.0625	-66.770927
20416.9922	-66.235909
20419.9219	-65.695465
20422.8516	-65.152695
20425.7812	-64.609894
20428.7109	-64.079727
20431.6406	-63.587017
20434.5703	-63.144054
20437.5000	-62.758751
20440.4297	-62.454082
20443.3594	-62.263489
20446.2891	-62.193264
20449.2188	-62.230782
20452.1484	-62.385605
20455.0781	-62.651154
20458.0078	-62.987301
20460.9375	-63.384121
20463.8672	-63.837440
20466.7969	-64.317650
20469.7266	-64.803436
20472.6562	-65.285339
20475.5859	-65.767426
20478.5156	-66.251381
20481.4453	-66.711090
20484.3750	-67.140945
20487.3047	-67.566177
20490.2344	-68.003525
20493.1641	-68.426971
20496.0938	-68.805794
20499.0234	-69.164749
20501.9531	-69.519150
20504.8828	-69.873199
20507.8125	-70.227859
20510.7422	-70.574814
20513.6719	-70.896576
20516.6016	-71.187141
20519.5312	-71.474503
20522.4609	-71.752151
20525.3906	-72.018295
20528.3203	-72.276489
20531.2500	-72.528053
20534.1797	-72.773643
20537.1094	-72.999649
20540.0391	-73.215706
20542.9688	-73.447983
20545.8984	-73.674919
20548.8281	-73.875153
20551.7578	-74.072647
20554.6875	-74.278854
20557.6172	-74.472694
20560.5469	-74.658005
20563.4766	-74.856392
20566.4062	-75.049232
20569.3359	-75.232857
20572.2656	-75.405945
20575.1953	-75.562302
20578.1250	-75.719070
20581.0547	-75.871552
20583.9844	-76.028267
20586.9141	-76.205330
20589.8438	-76.366760
20592.7734	-76.487762
20595.7031	-76.617584
20598.6328	-76.784447
20601.5625	-76.949570
20604.4922	-77.082573
20607.4219	-77.208305
20610.3516	-77.346825
20613.2812	-77.484383
20616.2109	-77.615036
20619.1406	-77.725273
20622.0703	-77.835182
20625.0000	-77.970100
20627.9297	-78.101311
20630.8594	-78.201889
20633.7891	-78.297173
20636.7188	-78.404251
20639.6484	-78.517853
20642.5781	-78.658813
20645.5078	-78.783035
20648.4375	-78.859856
20651.3672	-78.951675
20654.2969	-79.042656
20657.2266	-79.135254
20660.1562	-79.235268
20663.0859	-79.327362
20666.0156	-79.418671
20668.9453	-79.506744
20671.8750	-79.598862
20674.8047	-79.706207
20677.7344	-79.801460
20680.6641	-79.883263
20683.5938	-79.962181
20686.5234	-80.025688
20689.4531	-80.080063
20692.3828	-80.173828
20695.3125	-80.281982
20698.2422	-80.353081
20701.1719	-80.412033
20704.1016	-80.474617
20707.0312	-80.552025
20709.9609	-80.636063
20712.8906	-80.701614
20715.8203	-80.782722
20718.7500	-80.861626
20721.6797	-80.911270
20724.6094	-80.978012
20727.5391	-81.059204
20730.4688	-81.125702
20733.3984	-81.184303
20736.3281	-81.266312
20739.2578	-81.344841
20742.1875	-81.397446
20745.1172	-81.476219
20748.0469	-81.561432
20750.9766	-81.624405
20753.9062	-81.668625
20756.8359	-81.704605
20759.7656	-81.782135
20762.6953	-81.871178
20765.6250	-81.920219
20768.5547	-81.964836
20771.4844	-82.017799
20774.4141	-82.078255
20777.3438	-82.150223
20780.2734	-82.200119
20783.2031	-82.259254
20786.1328	-82.349373
20789.0625	-82.432816
20791.9922	-82.480591
20794.9219	-82.484039
20797.8516	-82.518227
20800.7812	-82.592339
20803.7109	-82.644394
20806.6406	-82.704773
20809.5703	-82.773193
20812.5000	-82.825249
20815.4297	-82.872963
20818.3594	-82.920128
20821.2891	-82.978142
20824.2188	-83.036850
20827.1484	-83.083504
20830.0781	-83.106232
20833.0078	-83.130005
20835.9375	-83.210213
20838.8672	-83.300186
20841.7969	-83.346733
20844.7266	-83.392960
20847.6562	-83.442772
20850.5859	-83.456261
20853.5156	-83.451637
20856.4453	-83.491829
20859.3750	-83.570282
20862.3047	-83.613998
20865.2344	-83.641815
20868.1641	-83.706093
20871.0938	-83.750015
20874.0234	-83.760376
20876.9531	-83.771889
20879.8828	-83.787514
20882.8125	-83.826912
20885.7422	-83.889908
20888.6719	-83.961143
20891.6016	-84.009659
20894.5312	-84.052925
20897.4609	-84.097771
20900.3906	-84.125397
20903.3203	-84.163490
20906.2500	-84.180908
20909.1797	-84.179527
20912.1094	-84.202980
20915.0391	-84.254196
20917.9688	-84.333092
20920.8984	-84.394341
20923.8281	-84.407814
20926.7578	-84.441772
20929.6875	-84.492088
20932.6172	-84.511261
20935.5469	-84.528870
20938.4766	-84.573662
20941.4062	-84.631485
20944.3359	-84.657066
20947.2656	-84.667328
20950.1953	-84.697929
20953.1250	-84.757736
20956.0547	-84.808121
20958.9844	-84.824783
20961.9141	-84.855598
20964.8438	-84.894859
20967.7734	-84.936333
20970.7031	-84.945503
20973.6328	-84.956116
20976.5625	-85.009865
20979.4922	-85.034966
20982.4219	-85.042374
20985.3516	-85.076744
20988.2812	-85.107346
20991.2109	-85.144112
20994.1406	-85.210068
20997.0703	-85.254425
21000.0000	-85.266823
21002.9297	-85.288399
21005.8594	-85.344490
21008.7891	-85.389709
21011.7188	-85.386971
21014.6484	-85.389427
21017.5781	-85.409088
21020.5078	-85.446815
21023.4375	-85.496918
21026.3672	-85.524925
21029.2969	-85.556190
21032.2266	-85.611816
21035.1562	-85.650116
21038.0859	-85.650871
21041.0156	-85.687157
21043.9453	-85.732735
21046.8750	-85.739624
21049.8047	-85.773369
21052.7344	-85.807739
21055.6641	-85.805328
21058.5938	-85.820564
21061.5234	-85.888863
21064.4531	-85.943031
21067.3828	-85.965202
21070.3125	-85.982056
21073.2422	-85.995262
21076.1719	-86.014648
21079.1016	-86.036865
21082.0312	-86.087387
21084.9609	-86.163605
21087.8906	-86.188774
21090.8203	-86.177017
21093.7500	-86.172585
21096.6797	-86.175209
21099.6094	-86.209618
21102.5391	-86.249687
21105.4688	-86.276291
21108.3984	-86.302200
21111.3281	-86.307541
21114.2578	-86.296761
21117.1875	-86.315681
21120.1172	-86.358582
21123.0469	-86.368500
21125.9766	-86.382088
21128.9062	-86.428963
21131.8359	-86.452713
21134.7656	-86.468178
21137.6953	-86.523041
21140.6250	-86.564888
21143.5547	-86.575600
21146.4844	-86.574341
21149.4141	-86.550743
21152.3438	-86.563766
21155.2734	-86.608475
21158.2031	-86.641747
21161.1328	-86.688751
21164.0625	-86.730934
21166.9922	-86.750053
21169.9219	-86.754013
21172.8516	-86.758530
21175.7812	-86.768692
21178.7109	-86.784325
21181.6406	-86.787193
21184.5703	-86.802017
21187.5000	-86.853539
21190.4297	-86.880035
21193.3594	-86.905388
21196.2891	-86.950073
21199.2188	-86.976860
21202.1484	-86.983177
21205.0781	-86.964813
21208.0078	-86.966118
21210.9375	-87.004982
21213.8672	-87.056793
21216.7969	-87.126335
21219.7266	-87.161453
21222.6562	-87.133644
21225.5859	-87.106041
21228.5156	-87.117790
21231.4453	-87.174950
21234.3750	-87.202454
21237.3047	-87.200172
21240.2344	-87.227341
21243.1641	-87.245651
21246.0938	-87.232704
21249.0234	-87.206032
21251.9531	-87.172646
21254.8828	-87.193176
21257.8125	-87.266289
21260.7422	-87.317894
21263.6719	-87.356720
21266.6016	-87.367332
21269.5312	-87.363068
21272.4609	-87.403275
21275.3906	-87.433716
21278.3203	-87.426323
21281.2500	-87.463928
21284.1797	-87.485283
21287.1094	-87.444199
21290.0391	-87.466492
21292.9688	-87.536621
21295.8984	-87.536018
21298.8281	-87.513863
21301.7578	-87.556442
21304.6875	-87.608513
21307.6172	-87.622154
21310.5469	-87.628349
21313.4766	-87.655411
21316.4062	-87.671532
21319.3359	-87.689011
21322.2656	-87.712296
21325.1953	-87.731277
21328.1250	-87.777596
21331.0547	-87.822586
21333.9844	-87.831444
21336.9141	-87.799652
21339.8438	-87.813187
21342.7734	-87.897903
21345.7031	-87.915421
21348.6328	-87.909424
21351.5625	-87.934731
21354.4922	-87.935112
21357.4219	-87.943489
21360.3516	-87.936409
21363.2812	-87.912270
21366.2109	-87.906906
21369.1406	-87.944168
21372.0703	-87.975586
21375.0000	-87.998108
21377.9297	-88.056305
21380.8594	-88.089470
21383.7891	-88.070213
21386.7188	-88.026596
21389.6484	-87.996284
21392.5781	-88.009659
21395.5078	-88.060989
21398.4375	-88.123550
21401.3672	-88.139046
21404.2969	-88.146973
21407.2266	-88.187401
21410.1562	-88.221970
21413.0859	-88.207237
21416.0156	-88.185799
21418.9453	-88.218018
21421.8750	-88.251877
21424.8047	-88.269928
21427.7344	-88.253761
21430.6641	-88.231674
21433.5938	-88.246078
21436.5234	-88.262856
21439.4531	-88.293762
21442.3828	-88.325104
21445.3125	-88.322975
21448.2422	-88.321556
21451.1719	-88.348251
21454.1016	-88.390556
21457.0312	-88.420044
21459.9609	-88.428833
21462.8906	-88.433121
21465.8203	-88.432388
21468.7500	-88.476021
21471.6797	-88.517822
21474.6094	-88.495979
21477.5391	-88.517242
21480.4688	-88.556023
21483.3984	-88.558693
21486.3281	-88.590149
21489.2578	-88.609055
21492.1875	-88.597801
21495.1172	-88.578903
21498.0469	-88.576485
21500.9766	-88.602539
21503.9062	-88.621689
21506.8359	-88.652916
21509.7656	-88.666893
21512.6953	-88.689606
21515.6250	-88.707535
21518.5547	-88.730568
21521.4844	-88.756042
21524.4141	-88.755562
21527.3438	-88.752312
21530.2734	-88.730362
21533.2031	-88.725113
21536.1328	-88.765327
21539.0625	-88.795937
21541.9922	-88.761452
21544.9219	-88.743614
21547.8516	-88.801392
21550.7812	-88.852242
21553.7109	-88.879387
21556.6406	-88.911293
21559.5703	-88.916832
21562.5000	-88.892120
21565.4297	-88.869568
21568.3594	-88.869194
21571.2891	-88.906029
21574.2188	-88.933571
21577.1484	-88.941154
21580.0781	-88.963661
21583.0078	-88.962830
21585.9375	-88.947197
21588.8672	-88.944321
21591.7969	-88.991173
21594.7266	-89.043564
21597.6562	-88.989052
21600.5859	-88.963661
21603.5156	-89.031120
21606.4453	-89.082985
21609.3750	-89.068474
21612.3047	-89.028061
21615.2344	-89.049797
21618.1641	-89.102531
21621.0938	-89.119102
21624.0234	-89.102760
21626.9531	-89.098061
21629.8828	-89.128380
21632.8125	-89.177734
21635.7422	-89.197441
21638.6719	-89.177460
21641.6016	-89.180977
21644.5312	-89.201202
21647.4609	-89.187614
21650.3906	-89.195305
21653.3203	-89.238388
21656.2500	-89.236298
21659.1797	-89.219604
21662.1094	-89.238060
21665.0391	-89.256210
21667.9688	-89.286705
21670.8984	-89.285835
21673.8281	-89.276039
21676.7578	-89.323723
21679.6875	-89.365341
21682.6172	-89.364998
21685.5469	-89.334579
21688.4766	-89.299095
21691.4062	-89.320763
21694.3359	-89.430748
21697.2656	-89.491226
21700.1953	-89.435791
21703.1250	-89.383263
21706.0547	-89.380379
21708.9844	-89.376450
21711.9141	-89.402466
21714.8438	-89.469780
21717.7734	-89.499466
21720.7031	-89.535835
21723.6328	-89.539742
21726.5625	-89.494453
21729.4922	-89.486862
21732.4219	-89.508934
21735.3516	-89.546364
21738.2812	-89.565170
21741.2109	-89.569206
21744.1406	-89.600906
21747.0703	-89.638115
21750.0000	-89.622025
21752.9297	-89.593964
21755.8594	-89.602509
21758.7891	-89.621780
21761.7188	-89.664093
21764.6484	-89.698448
21767.5781	-89.706467
21770.5078	-89.716690
21773.4375	-89.706985
21776.3672	-89.716240
21779.2969	-89.740494
21782.2266	-89.752388
21785.1562	-89.734070
21788.0859	-89.717552
21791.0156	-89.753143
21793.9453	-89.775436
21796.8750	-89.785179
21799.8047	-89.768402
21802.7344	-89.753105
21805.6641	-89.769424
21808.5938	-89.778267
21811.5234	-89.783699
21814.4531	-89.791626
21817.3828	-89.829109
21820.3125	-89.897629
21823.2422	-89.909645
21826.1719	-89.858017
21829.1016	-89.860184
21832.0312	-89.907906
21834.9609	-89.900887
21837.8906	-89.848106
21840.8203	-89.827400
21843.7500	-89.862129
21846.6797	-89.916260
21849.6094	-89.914215
21852.5391	-89.843498
21855.4688	-89.859879
21858.3984	-89.935425
21861.3281	-89.904945
21864.2578	-89.901031
21867.1875	-89.997635
21870.1172	-89.994469
21873.0469	-89.912148
21875.9766	-89.924286
21878.9062	-89.970818
21881.8359	-89.957878
21884.7656	-89.965675
21887.6953	-89.996368
21890.6250	-90.027199
21893.5547	-90.062881
21896.4844	-90.054077
21899.4141	-90.058495
21902.3438	-90.082619
21905.2734	-90.112312
21908.2031	-90.123169
21911.1328	-90.115463
21914.0625	-90.142723
21916.9922	-90.153183
21919.9219	-90.156960
21922.8516	-90.201363
21925.7812	-90.152740
21928.7109	-90.078468
21931.6406	-90.108589
21934.5703	-90.167130
21937.5000	-90.193695
21940.4297	-90.192314
21943.3594	-90.168442
21946.2891	-90.153740
21949.2188	-90.151939
21952.1484	-90.160271
21955.0781	-90.227211
21958.0078	-90.270271
21960.9375	-90.230362
21963.8672	-90.207222
21966.7969	-90.226837
21969.7266	-90.229164
21972.6562	-90.207237
21975.5859	-90.222260
21978.5156	-90.266953
21981.4453	-90.273926
21984.3750	-90.256943
21987.3047	-90.282181
21990.2344	-90.328697
21993.1641	-90.327942
21996.0938	-90.309669
21999.0234	-90.339935
22001.9531	-90.377327
22004.8828	-90.419472
22007.8125	-90.443672
22010.7422	-90.420052
22013.6719	-90.416542
22016.6016	-90.441223
22019.5312	-90.494194
22022.4609	-90.481888
22025.3906	-90.402397
22028.3203	-90.449165
22031.2500	-90.533165
22034.1797	-90.559128
22037.1094	-90.591621
22040.0391	-90.560837
22042.9688	-90.487274
22045.8984	-90.452087
22048.8281	-90.434372
22051.7578	-90.487000
22054.6875	-90.481461
22057.6172	-90.483795
22060.5469	-90.621590
22063.4766	-90.667007
22066.4062	-90.594360
22069.3359	-90.528580
22072.2656	-90.487885
22075.1953	-90.525322
22078.1250	-90.585579
22081.0547	-90.579613
22083.9844	-90.577843
22086.9141	-90.586365
22089.8438	-90.560837
22092.7734	-90.583130
22095.7031	-90.666847
22098.6328	-90.699272
22101.5625	-90.669006
22104.4922	-90.661148
22107.4219	-90.686081
22110.3516	-90.647682
22113.2812	-90.598984
22116.2109	-90.619583
22119.1406	-90.648460
22122.0703	-90.652672
22125.0000	-90.663269
22127.9297	-90.703598
22130.8594	-90.740089
22133.7891	-90.720688
22136.7188	-90.665558
22139.6484	-90.681870
22142.5781	-90.730370
22145.5078	-90.758995
22148.4375	-90.773964
22151.3672	-90.724991
22154.2969	-90.698860
22157.2266	-90.736298
22160.1562	-90.775543
22163.0859	-90.790421
22166.0156	-90.759140
22168.9453	-90.756401
22171.8750	-90.829613
22174.8047	-90.853600
22177.7344	-90.833786
22180.6641	-90.861198
22183.5938	-90.906281
22186.5234	-90.918480
22189.4531	-90.923035
22192.3828	-90.959221
22195.3125	-90.961021
22198.2422	-90.932610
22201.1719	-90.910011
22204.1016	-90.874901
22207.0312	-90.850639
22209.9609	-90.892685
22212.8906	-90.938393
22215.8203	-90.939262
22218.7500	-90.942322
22221.6797	-90.956154
22224.6094	-90.942276
22227.5391	-90.972893
22230.4688	-91.048859
22233.3984	-91.036331
22236.3281	-91.014503
22239.2578	-91.057274
22242.1875	-91.045273
22245.1172	-90.993958
22248.0469	-90.967506
22250.9766	-90.964172
22253.9062	-90.977615
22256.8359	-90.984573
22259.7656	-90.985580
22262.6953	-90.975975
22265.6250	-90.968002
22268.5547	-91.001266
22271.4844	-91.016548
22274.4141	-91.015404
22277.3438	-91.036034
22280.2734	-91.045944
22283.2031	-91.060181
22286.1328	-91.074203
22289.0625	-91.090561
22291.9922	-91.098854
22294.9219	-91.054932
22297.8516	-91.027596
22300.7812	-91.033562
22303.7109	-91.055290
22306.6406	-91.103447
22309.5703	-91.132637
22312.5000	-91.143394
22315.4297	-91.106964
22318.3594	-91.064468
22321.2891	-91.094276
22324.2188	-91.143028
22327.1484	-91.162277
22330.0781	-91.170158
22333.0078	-91.185852
22335.9375	-91.214088
22338.8672	-91.239021
22341.7969	-91.239693
22344.7266	-91.237625
22347.6562	-91.266335
22350.5859	-91.280769
22353.5156	-91.254662
22356.4453	-91.233231
22359.3750	-91.229980
22362.3047	-91.251595
22365.2344	-91.303108
22368.1641	-91.346756
22371.0938	-91.330002
22374.0234	-91.321358
22376.9531	-91.337524
22379.8828	-91.335335
22382.8125	-91.306473
22385.7422	-91.307121
22388.6719	-91.361565
22391.6016	-91.402817
22394.5312	-91.451653
22397.4609	-91.441483
22400.3906	-91.363945
22403.3203	-91.315140
22406.2500	-91.311600
22409.1797	-91.374207
22412.1094	-91.412262
22415.0391	-91.430664
22417.9688	-91.442177
22420.8984	-91.414688
22423.8281	-91.410805
22426.7578	-91.384277
22429.6875	-91.339188
22432.6172	-91.340736
22435.5469	-91.368744
22438.4766	-91.417259
22441.4062	-91.440338
22444.3359	-91.441132
22447.2656	-91.491898
22450.1953	-91.506165
22453.1250	-91.429596
22456.0547	-91.382736
22458.9844	-91.416122
22461.9141	-91.464912
22464.8438	-91.481369
22467.7734	-91.465012
22470.7031	-91.472519
22473.6328	-91.504898
22476.5625	-91.518669
22479.4922	-91.497345
22482.4219	-91.473442
22485.3516	-91.502281
22488.2812	-91.540314
22491.2109	-91.595825
22494.1406	-91.634880
22497.0703	-91.559258
22500.0000	-91.480019
22502.9297	-91.519829
22505.8594	-91.617783
22508.7891	-91.670830
22511.7188	-91.616577
22514.6484	-91.607018
22517.5781	-91.651619
22520.5078	-91.616081
22523.4375	-91.584541
22526.3672	-91.598946
22529.2969	-91.577538
22532.2266	-91.558922
22535.1562	-91.576973
22538.0859	-91.546463
22541.0156	-91.523529
22543.9453	-91.579666
22546.8750	-91.609283
22549.8047	-91.591576
22552.7344	-91.599182
22555.6641	-91.639397
22558.5938	-91.629677
22561.5234	-91.578377
22564.4531	-91.599495
22567.3828	-91.669647
22570.3125	-91.721863
22573.2422	-91.731949
22576.1719	-91.727554
22579.1016	-91.723595
22582.0312	-91.710770
22584.9609	-91.731552
22587.8906	-91.759659
22590.8203	-91.739456
22593.7500	-91.658623
22596.6797	-91.627945
22599.6094	-91.709930
22602.5391	-91.783340
22605.4688	-91.773407
22608.3984	-91.714172
22611.3281	-91.723183
22614.2578	-91.779144
22617.1875	-91.766159
22620.1172	-91.733803
22623.0469	-91.774788
22625.9766	-91.820572
22628.9062	-91.831558
22631.8359	-91.880707
22634.7656	-91.932030
22637.6953	-91.911560
22640.6250	-91.868088
22643.5547	-91.847206
22646.4844	-91.880753
22649.4141	-91.913765
22652.3438	-91.929413
22655.2734	-91.913132
22658.2031	-91.845886
22661.1328	-91.814583
22664.0625	-91.852768
22666.9922	-91.870239
22669.9219	-91.854164
22672.8516	-91.887085
22675.7812	-91.922997
22678.7109	-91.922569
22681.6406	-91.956718
22684.5703	-91.987999
22687.5000	-91.953552
22690.4297	-91.933830
22693.3594	-91.927185
22696.2891	-91.865257
22699.2188	-91.851967
22702.1484	-91.921768
22705.0781	-91.931030
22708.0078	-91.924263
22710.9375	-91.975334
22713.8672	-91.987213
22716.7969	-91.948753
22719.7266	-91.917198
22722.6562	-91.933914
22725.5859	-91.973816
22728.5156	-91.991646
22731.4453	-92.002907
22734.3750	-92.032745
22737.3047	-92.047874
22740.2344	-92.006554
22743.1641	-92.002754
22746.0938	-92.064034
22749.0234	-92.071091
22751.9531	-92.074928
22754.8828	-92.128746
22757.8125	-92.127380
22760.7422	-92.061569
22763.6719	-92.040260
22766.6016	-92.052597
22769.5312	-92.030708
22772.4609	-92.074005
22775.3906	-92.122513
22778.3203	-92.102325
22781.2500	-92.112701
22784.1797	-92.121132
22787.1094	-92.145187
22790.0391	-92.152733
22792.9688	-92.126358
22795.8984	-92.106613
22798.8281	-92.021965
22801.7578	-92.013557
22804.6875	-92.093941
22807.6172	-92.149467
22810.5469	-92.221542
22813.4766	-92.240753
22816.4062	-92.172661
22819.3359	-92.165627
22822.2656	-92.189125
22825.1953	-92.145653
22828.1250	-92.158264
22831.0547	-92.269867
22833.9844	-92.360863
22836.9141	-92.312721
22839.8438	-92.195992
22842.7734	-92.130394
22845.7031	-92.130424
22848.6328	-92.203766
22851.5625	-92.258514
22854.4922	-92.266853
22857.4219	-92.278214
22860.3516	-92.240028
22863.2812	-92.226578
22866.2109	-92.258003
22869.1406	-92.274353
22872.0703	-92.276283
22875.0000	-92.276855
22877.9297	-92.304893
22880.8594	-92.287682
22883.7891	-92.268127
22886.7188	-92.293472
22889.6484	-92.274750
22892.5781	-92.248993
22895.5078	-92.290443
22898.4375	-92.345062
22901.3672	-92.309486
22904.2969	-92.221443
22907.2266	-92.193100
22910.1562	-92.231560
22913.0859	-92.266144
22916.0156	-92.294136
22918.9453	-92.330818
22921.8750	-92.335777
22924.8047	-92.345879
22927.7344	-92.425018
22930.6641	-92.486107
22933.5938	-92.432991
22936.5234	-92.361092
22939.4531	-92.393829
22942.3828	-92.459969
22945.3125	-92.453568
22948.2422	-92.464676
22951.1719	-92.475342
22954.1016	-92.444473
22957.0312	-92.462982
22959.9609	-92.456573
22962.8906	-92.435722
22965.8203	-92.456650
22968.7500	-92.423302
22971.6797	-92.386200
22974.6094	-92.420380
22977.5391	-92.408669
22980.4688	-92.328384
22983.3984	-92.378258
22986.3281	-92.497551
22989.2578	-92.513596
22992.1875	-92.490936
22995.1172	-92.471687
22998.0469	-92.451248
23000.9766	-92.438705
23003.9062	-92.429665
23006.8359	-92.455040
23009.7656	-92.514969
23012.6953	-92.549797
23015.6250	-92.571960
23018.5547	-92.577942
23021.4844	-92.524788
23024.4141	-92.474800
23027.3438	-92.514633
23030.2734	-92.555290
23033.2031	-92.563293
23036.1328	-92.613976
23039.0625	-92.621216
23041.9922	-92.562592
23044.9219	-92.557610
23047.8516	-92.603767
23050.7812	-92.601761
23053.7109	-92.585999
23056.6406	-92.626709
23059.5703	-92.656372
23062.5000	-92.599495
23065.4297	-92.595528
23068.3594	-92.638084
23071.2891	-92.654533
23074.2188	-92.653877
23077.1484	-92.628868
23080.0781	-92.650848
23083.0078	-92.660202
23085.9375	-92.624146
23088.8672	-92.622276
23091.7969	-92.725746
23094.7266	-92.823647
23097.6562	-92.774590
23100.5859	-92.708916
23103.5156	-92.699478
23106.4453	-92.729431
23109.3750	-92.768387
23112.3047	-92.710655
23115.2344	-92.614838
23118.1641	-92.648079
23121.0938	-92.702393
23124.0234	-92.692108
23126.9531	-92.694206
23129.8828	-92.678139
23132.8125	-92.697144
23135.7422	-92.724197
23138.6719	-92.682091
23141.6016	-92.656311
23144.5312	-92.700172
23147.4609	-92.747955
23150.3906	-92.731720
23153.3203	-92.714012
23156.2500	-92.751564
23159.1797	-92.794815
23162.1094	-92.749741
23165.0391	-92.714577
23167.9688	-92.747940
23170.8984	-92.733994
23173.8281	-92.750870
23176.7578	-92.778793
23179.6875	-92.739395
23182.6172	-92.762512
23185.5469	-92.850868
23188.4766	-92.826431
23191.4062	-92.777885
23194.3359	-92.860550
23197.2656	-92.885345
23200.1953	-92.857742
23203.1250	-92.855583
23206.0547	-92.782242
23208.9844	-92.762772
23211.9141	-92.817757
23214.8438	-92.824203
23217.7734	-92.808945
23220.7031	-92.791687
23223.6328	-92.827385
23226.5625	-92.931007
23229.4922	-92.948685
23232.4219	-92.893196
23235.3516	-92.872345
23238.2812	-92.887100
23241.2109	-92.867592
23244.1406	-92.878860
23247.0703	-92.930092
23250.0000	-92.897980
23252.9297	-92.878914
23255.8594	-92.938553
23258.7891	-92.961418
23261.7188	-92.949104
23264.6484	-92.911705
23267.5781	-92.898552
23270.5078	-92.930672
23273.4375	-92.976791
23276.3672	-92.967628
23279.2969	-92.939629
23282.2266	-92.969795
23285.1562	-92.974869
23288.0859	-92.923378
23291.0156	-92.891762
23293.9453	-92.919884
23296.8750	-92.956429
23299.8047	-92.990318
23302.7344	-92.980576
23305.6641	-92.956062
23308.5938	-92.997070
23311.5234	-93.010071
23314.4531	-92.993622
23317.3828	-92.983284
23320.3125	-92.947716
23323.2422	-92.962585
23326.1719	-92.997337
23329.1016	-93.037010
23332.0312	-93.078773
23334.9609	-93.014458
23337.8906	-93.036804
23340.8203	-93.114243
23343.7500	-93.043724
23346.6797	-93.004684
23349.6094	-93.053535
23352.5391	-93.155151
23355.4688	-93.192650
23358.3984	-93.097557
23361.3281	-93.064346
23364.2578	-93.103409
23367.1875	-93.129738
23370.1172	-93.146034
23373.0469	-93.112900
23375.9766	-93.062416
23378.9062	-93.087006
23381.8359	-93.141251
23384.7656	-93.132607
23387.6953	-93.078125
23390.6250	-93.083160
23393.5547	-93.159554
23396.4844	-93.172241
23399.4141	-93.115913
23402.3438	-93.109131
23405.2734	-93.184097
23408.2031	-93.264198
23411.1328	-93.276627
23414.0625	-93.206924
23416.9922	-93.148376
23419.9219	-93.173492
23422.8516	-93.220802
23425.7812	-93.232780
23428.7109	-93.253098
23431.6406	-93.259285
23434.5703	-93.270889
23437.5000	-93.307266
23440.4297	-93.227676
23443.3594	-93.144836
23446.2891	-93.171143
23449.2188	-93.242683
23452.1484	-93.289001
23455.0781	-93.267555
23458.0078	-93.251663
23460.9375	-93.258224
23463.8672	-93.259407
23466.7969	-93.295731
23469.7266	-93.343864
23472.6562	-93.294266
23475.5859	-93.220032
23478.5156	-93.272690
23481.4453	-93.340019
23484.3750	-93.305161
23487.3047	-93.267609
23490.2344	-93.292778
23493.1641	-93.318581
23496.0938	-93.298119
23499.0234	-93.315704
23501.9531	-93.360939
23504.8828	-93.354637
23507.8125	-93.326927
23510.7422	-93.304527
23513.6719	-93.325531
23516.6016	-93.362785
23519.5312	-93.379211
23522.4609	-93.385597
23525.3906	-93.365715
23528.3203	-93.363327
23531.2500	-93.373016
23534.1797	-93.353661
23537.1094	-93.351181
23540.0391	-93.328445
23542.9688	-93.317451
23545.8984	-93.320679
23548.8281	-93.347031
23551.7578	-93.384071
23554.6875	-93.378891
23557.6172	-93.390633
23560.5469	-93.418007
23563.4766	-93.399307
23566.4062	-93.391533
23569.3359	-93.458847
23572.2656	-93.519897
23575.1953	-93.501503
23578.1250	-93.434784
23581.0547	-93.387756
23583.9844	-93.396454
23586.9141	-93.469826
23589.8438	-93.492607
23592.7734	-93.406342
23595.7031	-93.384209
23598.6328	-93.458801
23601.5625	-93.463219
23604.4922	-93.382919
23607.4219	-93.423233
23610.3516	-93.548584
23613.2812	-93.571976
23616.2109	-93.533600
23619.1406	-93.521667
23622.0703	-93.554535
23625.0000	-93.592369
23627.9297	-93.620781
23630.8594	-93.624352
23633.7891	-93.557457
23636.7188	-93.511070
23639.6484	-93.502472
23642.5781	-93.514259
23645.5078	-93.549034
23648.4375	-93.563629
23651.3672	-93.580238
23654.2969	-93.557487
23657.2266	-93.509521
23660.1562	-93.553185
23663.0859	-93.641891
23666.0156	-93.641205
23668.9453	-93.628983
23671.8750	-93.651421
23674.8047	-93.654465
23677.7344	-93.628448
23680.6641	-93.610184
23683.5938	-93.593826
