;Freq(Hz)	Relative Amplitude (dB): Left
18339.8438	-91.073296
18342.7734	-91.084587
18345.7031	-91.109444
18348.6328	-91.250336
18351.5625	-91.311966
18354.4922	-91.230690
18357.4219	-91.194481
18360.3516	-91.202744
18363.2812	-91.223579
18366.2109	-91.269539
18369.1406	-91.294838
18372.0703	-91.305176
18375.0000	-91.316025
18377.9297	-91.345192
18380.8594	-91.370705
18383.7891	-91.371140
18386.7188	-91.402138
18389.6484	-91.390472
18392.5781	-91.362953
18395.5078	-91.415253
18398.4375	-91.411560
18401.3672	-91.380241
18404.2969	-91.406242
18407.2266	-91.420555
18410.1562	-91.469994
18413.0859	-91.530022
18416.0156	-91.549316
18418.9453	-91.535912
18421.8750	-91.488472
18424.8047	-91.463470
18427.7344	-91.507210
18430.6641	-91.596275
18433.5938	-91.657265
18436.5234	-91.632439
18439.4531	-91.628448
18442.3828	-91.680145
18445.3125	-91.697952
18448.2422	-91.736061
18451.1719	-91.734924
18454.1016	-91.675438
18457.0312	-91.650322
18459.9609	-91.635025
18462.8906	-91.628365
18465.8203	-91.647240
18468.7500	-91.714470
18471.6797	-91.716583
18474.6094	-91.687988
18477.5391	-91.739441
18480.4688	-91.779114
18483.3984	-91.784180
18486.3281	-91.756378
18489.2578	-91.759613
18492.1875	-91.819588
18495.1172	-91.853065
18498.0469	-91.917557
18500.9766	-91.953102
18503.9062	-91.909355
18506.8359	-91.907600
18509.7656	-91.928406
18512.6953	-91.903809
18515.6250	-91.883339
18518.5547	-91.921532
18521.4844	-91.964409
18524.4141	-92.024445
18527.3438	-92.087769
18530.2734	-92.072884
18533.2031	-92.065331
18536.1328	-92.113480
18539.0625	-92.180351
18541.9922	-92.195038
18544.9219	-92.127350
18547.8516	-92.078888
18550.7812	-92.083366
18553.7109	-92.118408
18556.6406	-92.197861
18559.5703	-92.305962
18562.5000	-92.340950
18565.4297	-92.274704
18568.3594	-92.228523
18571.2891	-92.235832
18574.2188	-92.269089
18577.1484	-92.295364
18580.0781	-92.316391
18583.0078	-92.399452
18585.9375	-92.444244
18588.8672	-92.420036
18591.7969	-92.420792
18594.7266	-92.405586
18597.6562	-92.366028
18600.5859	-92.398575
18603.5156	-92.468895
18606.4453	-92.488976
18609.3750	-92.500931
18612.3047	-92.492912
18615.2344	-92.485481
18618.1641	-92.542435
18621.0938	-92.591888
18624.0234	-92.627617
18626.9531	-92.633621
18629.8828	-92.608185
18632.8125	-92.654137
18635.7422	-92.705864
18638.6719	-92.712891
18641.6016	-92.757256
18644.5312	-92.797050
18647.4609	-92.726479
18650.3906	-92.703636
18653.3203	-92.797836
18656.2500	-92.813232
18659.1797	-92.834503
18662.1094	-92.905350
18665.0391	-92.925903
18667.9688	-92.955215
18670.8984	-93.037415
18673.8281	-93.108238
18676.7578	-93.101913
18679.6875	-93.079330
18682.6172	-93.095833
18685.5469	-93.129295
18688.4766	-93.106377
18691.4062	-93.086273
18694.3359	-93.135681
18697.2656	-93.275711
18700.1953	-93.393120
18703.1250	-93.346657
18706.0547	-93.278801
18708.9844	-93.296906
18711.9141	-93.317245
18714.8438	-93.306923
18717.7734	-93.289169
18720.7031	-93.240616
18723.6328	-93.208168
18726.5625	-93.258972
18729.4922	-93.329094
18732.4219	-93.415649
18735.3516	-93.518349
18738.2812	-93.513245
18741.2109	-93.424019
18744.1406	-93.389267
18747.0703	-93.489792
18750.0000	-93.583786
18752.9297	-93.474220
18755.8594	-93.388313
18758.7891	-93.486839
18761.7188	-93.622314
18764.6484	-93.670410
18767.5781	-93.661491
18770.5078	-93.668526
18773.4375	-93.726768
18776.3672	-93.819283
18779.2969	-93.845169
18782.2266	-93.860695
18785.1562	-93.851089
18788.0859	-93.828110
18791.0156	-93.851158
18793.9453	-93.862679
18796.8750	-93.927750
18799.8047	-93.993317
18802.7344	-94.008644
18805.6641	-94.052895
18808.5938	-94.049568
18811.5234	-93.968430
18814.4531	-93.998596
18817.3828	-94.159637
18820.3125	-94.203018
18823.2422	-94.149780
18826.1719	-94.154816
18829.1016	-94.174370
18832.0312	-94.156815
18834.9609	-94.132225
18837.8906	-94.168968
18840.8203	-94.221458
18843.7500	-94.307610
18846.6797	-94.442169
18849.6094	-94.526787
18852.5391	-94.491898
18855.4688	-94.498909
18858.3984	-94.423584
18861.3281	-94.395256
18864.2578	-94.508255
18867.1875	-94.573967
18870.1172	-94.584000
18873.0469	-94.641342
18875.9766	-94.673836
18878.9062	-94.619560
18881.8359	-94.583275
18884.7656	-94.571907
18887.6953	-94.550415
18890.6250	-94.543282
18893.5547	-94.585152
18896.4844	-94.596207
18899.4141	-94.555038
18902.3438	-94.648087
18905.2734	-94.754723
18908.2031	-94.743851
18911.1328	-94.772850
18914.0625	-94.829247
18916.9922	-94.807373
18919.9219	-94.817703
18922.8516	-94.894142
18925.7812	-94.963539
18928.7109	-95.040749
18931.6406	-95.092583
18934.5703	-95.119499
18937.5000	-95.174149
18940.4297	-95.226784
18943.3594	-95.222099
18946.2891	-95.125084
18949.2188	-95.018898
18952.1484	-95.092316
18955.0781	-95.197449
18958.0078	-95.232391
18960.9375	-95.316299
18963.8672	-95.361778
18966.7969	-95.344261
18969.7266	-95.362335
18972.6562	-95.426811
18975.5859	-95.506866
18978.5156	-95.592674
18981.4453	-95.651054
18984.3750	-95.639069
18987.3047	-95.618576
18990.2344	-95.661163
18993.1641	-95.710907
18996.0938	-95.636513
18999.0234	-95.589546
19001.9531	-95.782455
19004.8828	-95.902733
19007.8125	-95.796555
19010.7422	-95.779015
19013.6719	-95.907745
19016.6016	-96.025932
19019.5312	-96.059326
19022.4609	-96.042892
19025.3906	-96.063049
19028.3203	-96.151741
19031.2500	-96.160400
19034.1797	-96.171059
19037.1094	-96.298424
19040.0391	-96.394249
19042.9688	-96.375458
19045.8984	-96.296165
19048.8281	-96.353699
19051.7578	-96.484268
19054.6875	-96.496094
19057.6172	-96.524635
19060.5469	-96.536476
19063.4766	-96.455666
19066.4062	-96.440308
19069.3359	-96.503693
19072.2656	-96.540237
19075.1953	-96.576729
19078.1250	-96.710678
19081.0547	-96.867332
19083.9844	-96.881859
19086.9141	-96.826714
19089.8438	-96.768066
19092.7734	-96.738426
19095.7031	-96.859779
19098.6328	-96.978012
19101.5625	-96.886139
19104.4922	-96.882973
19107.4219	-97.055115
19110.3516	-97.135605
19113.2812	-97.183472
19116.2109	-97.244934
19119.1406	-97.285446
19122.0703	-97.326157
19125.0000	-97.348686
19127.9297	-97.475044
19130.8594	-97.617958
19133.7891	-97.521584
19136.7188	-97.470184
19139.6484	-97.600845
19142.5781	-97.646011
19145.5078	-97.729523
19148.4375	-97.838997
19151.3672	-97.833450
19154.2969	-97.837761
19157.2266	-97.960030
19160.1562	-97.997169
19163.0859	-97.951637
19166.0156	-97.980865
19168.9453	-97.978355
19171.8750	-98.075264
19174.8047	-98.149429
19177.7344	-98.107773
19180.6641	-97.965828
19183.5938	-97.828995
19186.5234	-98.001015
19189.4531	-98.213463
19192.3828	-98.325409
19195.3125	-98.577026
19198.2422	-98.797302
19201.1719	-98.846619
19204.1016	-98.781876
19207.0312	-98.659248
19209.9609	-98.557800
19212.8906	-98.719841
19215.8203	-98.860718
19218.7500	-98.776352
19221.6797	-98.777031
19224.6094	-98.842422
19227.5391	-98.947983
19230.4688	-99.082169
19233.3984	-99.078888
19236.3281	-99.090126
19239.2578	-99.211624
19242.1875	-99.295929
19245.1172	-99.371452
19248.0469	-99.487854
19250.9766	-99.584167
19253.9062	-99.585182
19256.8359	-99.620399
19259.7656	-99.659248
19262.6953	-99.668915
19265.6250	-99.754784
19268.5547	-99.951279
19271.4844	-100.036728
19274.4141	-99.892746
19277.3438	-99.924667
19280.2734	-99.947777
19283.2031	-99.780174
19286.1328	-100.043762
19289.0625	-100.496590
19291.9922	-100.491890
19294.9219	-100.420197
19297.8516	-100.655197
19300.7812	-100.787918
19303.7109	-100.665909
19306.6406	-100.776848
19309.5703	-101.025642
19312.5000	-101.175117
19315.4297	-101.212845
19318.3594	-101.012131
19321.2891	-100.848602
19324.2188	-101.051140
19327.1484	-101.399025
19330.0781	-101.506218
19333.0078	-101.486465
19335.9375	-101.577431
19338.8672	-101.726486
19341.7969	-101.768112
19344.7266	-101.632286
19347.6562	-101.618141
19350.5859	-101.833275
19353.5156	-101.975655
19356.4453	-102.078781
19359.3750	-102.049774
19362.3047	-102.202751
19365.2344	-102.504387
19368.1641	-102.564743
19371.0938	-102.565178
19374.0234	-102.671104
19376.9531	-102.919197
19379.8828	-102.861763
19382.8125	-102.210129
19385.7422	-102.193504
19388.6719	-102.914345
19391.6016	-103.210762
19394.5312	-103.283203
19397.4609	-103.181007
19400.3906	-103.130302
19403.3203	-103.407906
19406.2500	-103.589302
19409.1797	-103.821014
19412.1094	-103.960052
19415.0391	-103.952461
19417.9688	-104.114326
19420.8984	-104.071869
19423.8281	-103.920395
19426.7578	-104.007256
19429.6875	-104.328545
19432.6172	-104.651649
19435.5469	-104.725586
19438.4766	-104.855789
19441.4062	-104.969589
19444.3359	-104.803093
19447.2656	-104.760239
19450.1953	-105.175880
19453.1250	-105.687271
19456.0547	-105.728401
19458.9844	-105.630981
19461.9141	-105.610092
19464.8438	-105.831619
19467.7734	-106.351303
19470.7031	-106.653755
19473.6328	-106.784966
19476.5625	-106.849899
19479.4922	-106.912277
19482.4219	-107.311401
19485.3516	-107.639999
19488.2812	-107.611145
19491.2109	-107.678482
19494.1406	-107.995773
19497.0703	-108.188095
19500.0000	-108.004692
19502.9297	-108.226700
19505.8594	-108.655205
19508.7891	-108.919762
19511.7188	-109.088486
19514.6484	-109.155380
19517.5781	-109.404594
19520.5078	-109.546684
19523.4375	-109.866951
19526.3672	-110.561752
19529.2969	-111.431610
19532.2266	-111.620468
19535.1562	-110.872894
19538.0859	-110.561699
19541.0156	-111.099701
19543.9453	-111.699478
19546.8750	-111.733170
19549.8047	-112.199730
19552.7344	-112.809013
19555.6641	-113.116501
19558.5938	-113.545937
19561.5234	-113.681572
19564.4531	-113.170601
19567.3828	-113.820312
19570.3125	-115.054085
19573.2422	-116.013802
19576.1719	-116.385002
19579.1016	-116.073776
19582.0312	-115.193123
19584.9609	-115.449280
19587.8906	-116.976143
19590.8203	-116.802696
19593.7500	-116.477974
19596.6797	-116.187004
19599.6094	-118.156685
19602.5391	-122.188683
19605.4688	-120.998222
19608.3984	-120.682236
19611.3281	-124.661453
19614.2578	-125.284729
19617.1875	-123.565727
19620.1172	-122.514252
19623.0469	-123.336060
19625.9766	-126.325333
19628.9062	-127.225281
19631.8359	-125.733078
19634.7656	-124.781174
19637.6953	-126.078087
19640.6250	-127.501450
19643.5547	-127.148224
19646.4844	-121.239967
19649.4141	-118.157639
19652.3438	-118.234802
19655.2734	-119.353241
19658.2031	-119.640373
19661.1328	-119.341805
19664.0625	-118.664909
19666.9922	-117.333565
19669.9219	-116.202454
19672.8516	-115.853317
19675.7812	-116.052025
19678.7109	-116.084541
19681.6406	-115.291199
19684.5703	-114.338066
19687.5000	-113.881714
19690.4297	-114.034096
19693.3594	-113.301086
19696.2891	-112.891678
19699.2188	-113.360611
19702.1484	-112.580864
19705.0781	-111.692459
19708.0078	-111.490433
19710.9375	-111.156311
19713.8672	-110.651527
19716.7969	-110.467537
19719.7266	-110.077042
19722.6562	-109.684631
19725.5859	-109.761116
19728.5156	-110.123787
19731.4453	-110.174889
19734.3750	-109.580025
19737.3047	-109.031967
19740.2344	-109.040237
19743.1641	-108.742958
19746.0938	-107.743111
19749.0234	-107.250938
19751.9531	-107.338959
19754.8828	-107.154091
19757.8125	-106.835251
19760.7422	-106.779396
19763.6719	-106.719467
19766.6016	-106.602913
19769.5312	-106.380417
19772.4609	-106.054405
19775.3906	-105.941032
19778.3203	-105.969589
19781.2500	-105.726105
19784.1797	-105.616264
19787.1094	-105.665306
19790.0391	-105.355049
19792.9688	-104.903770
19795.8984	-104.437744
19798.8281	-104.110497
19801.7578	-104.298050
19804.6875	-104.377968
19807.6172	-104.154678
19810.5469	-104.203377
19813.4766	-104.076523
19816.4062	-103.566727
19819.3359	-103.356613
19822.2656	-103.466805
19825.1953	-103.345306
19828.1250	-103.069283
19831.0547	-103.202126
19833.9844	-103.451706
19836.9141	-103.172226
19839.8438	-102.627327
19842.7734	-102.269707
19845.7031	-102.400894
19848.6328	-102.908592
19851.5625	-102.888664
19854.4922	-102.415291
19857.4219	-102.016930
19860.3516	-101.759064
19863.2812	-101.698013
19866.2109	-101.559067
19869.1406	-101.294312
19872.0703	-101.278801
19875.0000	-101.278320
19877.9297	-101.122498
19880.8594	-101.109856
19883.7891	-100.994621
19886.7188	-100.744682
19889.6484	-100.641663
19892.5781	-100.634399
19895.5078	-100.446571
19898.4375	-100.048996
19901.3672	-99.936211
19904.2969	-100.048256
19907.2266	-99.990387
19910.1562	-99.996147
19913.0859	-99.961487
19916.0156	-99.860283
19918.9453	-99.706642
19921.8750	-99.479286
19924.8047	-99.393990
19927.7344	-99.405144
19930.6641	-99.322685
19933.5938	-99.120262
19936.5234	-98.906502
19939.4531	-98.719666
19942.3828	-98.644058
19945.3125	-98.588402
19948.2422	-98.478668
19951.1719	-98.447411
19954.1016	-98.421204
19957.0312	-98.338203
19959.9609	-98.220490
19962.8906	-98.130188
19965.8203	-98.030693
19968.7500	-97.912834
19971.6797	-97.899605
19974.6094	-97.848549
19977.5391	-97.699806
19980.4688	-97.651482
19983.3984	-97.635422
19986.3281	-97.472969
19989.2578	-97.355278
19992.1875	-97.397179
19995.1172	-97.243652
19998.0469	-96.858421
20000.9766	-96.723145
20003.9062	-96.863617
20006.8359	-96.919701
20009.7656	-96.804085
20012.6953	-96.654266
20015.6250	-96.590492
20018.5547	-96.578651
20021.4844	-96.556969
20024.4141	-96.480232
20027.3438	-96.424568
20030.2734	-96.400009
20033.2031	-96.346420
20036.1328	-96.272537
20039.0625	-96.131409
20041.9922	-96.000900
20044.9219	-95.912720
20047.8516	-95.789894
20050.7812	-95.693199
20053.7109	-95.685471
20056.6406	-95.525719
20059.5703	-95.409882
20062.5000	-95.472008
20065.4297	-95.427261
20068.3594	-95.303040
20071.2891	-95.309563
20074.2188	-95.292023
20077.1484	-95.177559
20080.0781	-95.133820
20083.0078	-95.062119
20085.9375	-94.927658
20088.8672	-94.894470
20091.7969	-94.859253
20094.7266	-94.735817
20097.6562	-94.641144
20100.5859	-94.594063
20103.5156	-94.500336
20106.4453	-94.382507
20109.3750	-94.280754
20112.3047	-94.178329
20115.2344	-94.143738
20118.1641	-94.139397
20121.0938	-94.095886
20124.0234	-94.002869
20126.9531	-93.885475
20129.8828	-93.832420
20132.8125	-93.818764
20135.7422	-93.756264
20138.6719	-93.714172
20141.6016	-93.649910
20144.5312	-93.562393
20147.4609	-93.600693
20150.3906	-93.551613
20153.3203	-93.323105
20156.2500	-93.191444
20159.1797	-93.168999
20162.1094	-93.151886
20165.0391	-93.091118
20167.9688	-93.010712
20170.8984	-92.976387
20173.8281	-92.935097
20176.7578	-92.868614
20179.6875	-92.783554
20182.6172	-92.737793
20185.5469	-92.694374
20188.4766	-92.635353
20191.4062	-92.577713
20194.3359	-92.528343
20197.2656	-92.597313
20200.1953	-92.564499
20203.1250	-92.382774
20206.0547	-92.289131
20208.9844	-92.255211
20211.9141	-92.198135
20214.8438	-92.120071
20217.7734	-92.094566
20220.7031	-92.048172
20223.6328	-91.961243
20226.5625	-91.893723
20229.4922	-91.847702
20232.4219	-91.828369
20235.3516	-91.738945
20238.2812	-91.617821
20241.2109	-91.598251
20244.1406	-91.616127
20247.0703	-91.603760
20250.0000	-91.528549
20252.9297	-91.459557
20255.8594	-91.384521
20258.7891	-91.288353
20261.7188	-91.247498
20264.6484	-91.216621
20267.5781	-91.134666
20270.5078	-91.082535
20273.4375	-91.085129
20276.3672	-91.055054
20279.2969	-90.934303
20282.2266	-90.825981
20285.1562	-90.797440
20288.0859	-90.759727
20291.0156	-90.716064
20293.9453	-90.655914
20296.8750	-90.462944
20299.8047	-90.354103
20302.7344	-90.395653
20305.6641	-90.399712
20308.5938	-90.368057
20311.5234	-90.319588
20314.4531	-90.269211
20317.3828	-90.208687
20320.3125	-90.150360
20323.2422	-90.100342
20326.1719	-90.034248
20329.1016	-89.972893
20332.0312	-89.929939
20334.9609	-89.882454
20337.8906	-89.838860
20340.8203	-89.759987
20343.7500	-89.692833
20346.6797	-89.732185
20349.6094	-89.744110
20352.5391	-89.613243
20355.4688	-89.470863
20358.3984	-89.394211
20361.3281	-89.359245
20364.2578	-89.315628
20367.1875	-89.258812
20370.1172	-89.203819
20373.0469	-89.163605
20375.9766	-89.149086
20378.9062	-89.102875
20381.8359	-89.002357
20384.7656	-88.927612
20387.6953	-88.909775
20390.6250	-88.879578
20393.5547	-88.841492
20396.4844	-88.772469
20399.4141	-88.672073
20402.3438	-88.627235
20405.2734	-88.610367
20408.2031	-88.582962
20411.1328	-88.529694
20414.0625	-88.450096
20416.9922	-88.383652
20419.9219	-88.341728
20422.8516	-88.304718
20425.7812	-88.261993
20428.7109	-88.242813
20431.6406	-88.217667
20434.5703	-88.146172
20437.5000	-88.087471
20440.4297	-88.067429
20443.3594	-88.025940
20446.2891	-87.929283
20449.2188	-87.812180
20452.1484	-87.732239
20455.0781	-87.720879
20458.0078	-87.721039
20460.9375	-87.676277
20463.8672	-87.645012
20466.7969	-87.628357
20469.7266	-87.562950
20472.6562	-87.488731
20475.5859	-87.461098
20478.5156	-87.434944
20481.4453	-87.379059
20484.3750	-87.313728
20487.3047	-87.249847
20490.2344	-87.171211
20493.1641	-87.098709
20496.0938	-87.140106
20499.0234	-87.182152
20501.9531	-87.039055
20504.8828	-86.935699
20507.8125	-86.952400
20510.7422	-86.917137
20513.6719	-86.852066
20516.6016	-86.803627
20519.5312	-86.752426
20522.4609	-86.697929
20525.3906	-86.621239
20528.3203	-86.553795
20531.2500	-86.555023
20534.1797	-86.547859
20537.1094	-86.471397
20540.0391	-86.397186
20542.9688	-86.361740
20545.8984	-86.365341
20548.8281	-86.376549
20551.7578	-86.320976
20554.6875	-86.234962
20557.6172	-86.189186
20560.5469	-86.172897
20563.4766	-86.120316
20566.4062	-86.054184
20569.3359	-86.006775
20572.2656	-85.962509
20575.1953	-85.922264
20578.1250	-85.856575
20581.0547	-85.803787
20583.9844	-85.793373
20586.9141	-85.757874
20589.8438	-85.720695
20592.7734	-85.697189
20595.7031	-85.641472
20598.6328	-85.598656
20601.5625	-85.560921
20604.4922	-85.547432
20607.4219	-85.518745
20610.3516	-85.464386
20613.2812	-85.392624
20616.2109	-85.330254
20619.1406	-85.280518
20622.0703	-85.242302
20625.0000	-85.194359
20627.9297	-85.149300
20630.8594	-85.098541
20633.7891	-85.037140
20636.7188	-84.984093
20639.6484	-84.934303
20642.5781	-84.869026
20645.5078	-84.780785
20648.4375	-84.716812
20651.3672	-84.691902
20654.2969	-84.653976
20657.2266	-84.614372
20660.1562	-84.568962
20663.0859	-84.526070
20666.0156	-84.484924
20668.9453	-84.413872
20671.8750	-84.366180
20674.8047	-84.338684
20677.7344	-84.281029
20680.6641	-84.204063
20683.5938	-84.149780
20686.5234	-84.141045
20689.4531	-84.100502
20692.3828	-84.002518
20695.3125	-83.902191
20698.2422	-83.813522
20701.1719	-83.796387
20704.1016	-83.826111
20707.0312	-83.802917
20709.9609	-83.740067
20712.8906	-83.706276
20715.8203	-83.680435
20718.7500	-83.620384
20721.6797	-83.560066
20724.6094	-83.525421
20727.5391	-83.498581
20730.4688	-83.437454
20733.3984	-83.359589
20736.3281	-83.312920
20739.2578	-83.258423
20742.1875	-83.193680
20745.1172	-83.184677
20748.0469	-83.183624
20750.9766	-83.128021
20753.9062	-83.063385
20756.8359	-83.012886
20759.7656	-82.963829
20762.6953	-82.923813
20765.6250	-82.877480
20768.5547	-82.822121
20771.4844	-82.780396
20774.4141	-82.740639
20777.3438	-82.689125
20780.2734	-82.649902
20783.2031	-82.610001
20786.1328	-82.549988
20789.0625	-82.495789
20791.9922	-82.451126
20794.9219	-82.392708
20797.8516	-82.282440
20800.7812	-82.237183
20803.7109	-82.272339
20806.6406	-82.244713
20809.5703	-82.186668
20812.5000	-82.128105
20815.4297	-82.064888
20818.3594	-82.020386
20821.2891	-81.976677
20824.2188	-81.918884
20827.1484	-81.868011
20830.0781	-81.841949
20833.0078	-81.807648
20835.9375	-81.743492
20838.8672	-81.691605
20841.7969	-81.648239
20844.7266	-81.599220
20847.6562	-81.572845
20850.5859	-81.522865
20853.5156	-81.447510
20856.4453	-81.406174
20859.3750	-81.383026
20862.3047	-81.351089
20865.2344	-81.306282
20868.1641	-81.258537
20871.0938	-81.211121
20874.0234	-81.172882
20876.9531	-81.141922
20879.8828	-81.083321
20882.8125	-81.022011
20885.7422	-80.978691
20888.6719	-80.925583
20891.6016	-80.881035
20894.5312	-80.831459
20897.4609	-80.753967
20900.3906	-80.698288
20903.3203	-80.682327
20906.2500	-80.664230
20909.1797	-80.627495
20912.1094	-80.589088
20915.0391	-80.551521
20917.9688	-80.513626
20920.8984	-80.472298
20923.8281	-80.423973
20926.7578	-80.375366
20929.6875	-80.339348
20932.6172	-80.302139
20935.5469	-80.267212
20938.4766	-80.229584
20941.4062	-80.182693
20944.3359	-80.144142
20947.2656	-80.114670
20950.1953	-80.062759
20953.1250	-79.991364
20956.0547	-79.937477
20958.9844	-79.905907
20961.9141	-79.839249
20964.8438	-79.762978
20967.7734	-79.729935
20970.7031	-79.699188
20973.6328	-79.637619
20976.5625	-79.575470
20979.4922	-79.530693
20982.4219	-79.465210
20985.3516	-79.392525
20988.2812	-79.343346
20991.2109	-79.298294
20994.1406	-79.247963
20997.0703	-79.218040
21000.0000	-79.152435
21002.9297	-79.049255
21005.8594	-78.993080
21008.7891	-78.965126
21011.7188	-78.924347
21014.6484	-78.861809
21017.5781	-78.812134
21020.5078	-78.763168
21023.4375	-78.694801
21026.3672	-78.628281
21029.2969	-78.577072
21032.2266	-78.529716
21035.1562	-78.478722
21038.0859	-78.427376
21041.0156	-78.365059
21043.9453	-78.305344
21046.8750	-78.227608
21049.8047	-78.142838
21052.7344	-78.121132
21055.6641	-78.120811
21058.5938	-78.073296
21061.5234	-78.000832
21064.4531	-77.941055
21067.3828	-77.899269
21070.3125	-77.849648
21073.2422	-77.795639
21076.1719	-77.757187
21079.1016	-77.709068
21082.0312	-77.640762
21084.9609	-77.577110
21087.8906	-77.523773
21090.8203	-77.475815
21093.7500	-77.420822
21096.6797	-77.350441
21099.6094	-77.292267
21102.5391	-77.260010
21105.4688	-77.219566
21108.3984	-77.162506
21111.3281	-77.098129
21114.2578	-77.034782
21117.1875	-76.994698
21120.1172	-76.948898
21123.0469	-76.875191
21125.9766	-76.813797
21128.9062	-76.772667
21131.8359	-76.730270
21134.7656	-76.672005
21137.6953	-76.596497
21140.6250	-76.525963
21143.5547	-76.482895
21146.4844	-76.453529
21149.4141	-76.412956
21152.3438	-76.340988
21155.2734	-76.256920
21158.2031	-76.214561
21161.1328	-76.176041
21164.0625	-76.099670
21166.9922	-76.024628
21169.9219	-75.973854
21172.8516	-75.929680
21175.7812	-75.870209
21178.7109	-75.800880
21181.6406	-75.745064
21184.5703	-75.697159
21187.5000	-75.636963
21190.4297	-75.575188
21193.3594	-75.507164
21196.2891	-75.446228
21199.2188	-75.406166
21202.1484	-75.343918
21205.0781	-75.270630
21208.0078	-75.207771
21210.9375	-75.150002
21213.8672	-75.109283
21216.7969	-75.064629
21219.7266	-74.999550
21222.6562	-74.935188
21225.5859	-74.882721
21228.5156	-74.830582
21231.4453	-74.777161
21234.3750	-74.711647
21237.3047	-74.630676
21240.2344	-74.570938
21243.1641	-74.532455
21246.0938	-74.482185
21249.0234	-74.421417
21251.9531	-74.364021
21254.8828	-74.308304
21257.8125	-74.244919
21260.7422	-74.174721
21263.6719	-74.105415
21266.6016	-74.034004
21269.5312	-73.959053
21272.4609	-73.892250
21275.3906	-73.829140
21278.3203	-73.759422
21281.2500	-73.683807
21284.1797	-73.611366
21287.1094	-73.542549
21290.0391	-73.469093
21292.9688	-73.399162
21295.8984	-73.342735
21298.8281	-73.284752
21301.7578	-73.188599
21304.6875	-73.090790
21307.6172	-73.027237
21310.5469	-72.968445
21313.4766	-72.906586
21316.4062	-72.838417
21319.3359	-72.759521
21322.2656	-72.685631
21325.1953	-72.616188
21328.1250	-72.549232
21331.0547	-72.488869
21333.9844	-72.418755
21336.9141	-72.341499
21339.8438	-72.271233
21342.7734	-72.195427
21345.7031	-72.114204
21348.6328	-72.035667
21351.5625	-71.966896
21354.4922	-71.918259
21357.4219	-71.854904
21360.3516	-71.764290
21363.2812	-71.675423
21366.2109	-71.597343
21369.1406	-71.531708
21372.0703	-71.469566
21375.0000	-71.399010
21377.9297	-71.312042
21380.8594	-71.212875
21383.7891	-71.129860
21386.7188	-71.068977
21389.6484	-71.000107
21392.5781	-70.919525
21395.5078	-70.833466
21398.4375	-70.737915
21401.3672	-70.663269
21404.2969	-70.597260
21407.2266	-70.514526
21410.1562	-70.436943
21413.0859	-70.360268
21416.0156	-70.285065
21418.9453	-70.208321
21421.8750	-70.120995
21424.8047	-70.033463
21427.7344	-69.954788
21430.6641	-69.864304
21433.5938	-69.766296
21436.5234	-69.678169
21439.4531	-69.592903
21442.3828	-69.501404
21445.3125	-69.409286
21448.2422	-69.317879
21451.1719	-69.221153
21454.1016	-69.126259
21457.0312	-69.027718
21459.9609	-68.908272
21462.8906	-68.789619
21465.8203	-68.682510
21468.7500	-68.588425
21471.6797	-68.510017
21474.6094	-68.424835
21477.5391	-68.320450
21480.4688	-68.213043
21483.3984	-68.103897
21486.3281	-67.984146
21489.2578	-67.874565
21492.1875	-67.769821
21495.1172	-67.667984
21498.0469	-67.578506
21500.9766	-67.471367
21503.9062	-67.350128
21506.8359	-67.237984
21509.7656	-67.125153
21512.6953	-67.015182
21515.6250	-66.919159
21518.5547	-66.819237
21521.4844	-66.707161
21524.4141	-66.592468
21527.3438	-66.477921
21530.2734	-66.364464
21533.2031	-66.249382
21536.1328	-66.127060
21539.0625	-65.997971
21541.9922	-65.866928
21544.9219	-65.727814
21547.8516	-65.571243
21550.7812	-65.429359
21553.7109	-65.322670
21556.6406	-65.215279
21559.5703	-65.098244
21562.5000	-64.984566
21565.4297	-64.859970
21568.3594	-64.709427
21571.2891	-64.553490
21574.2188	-64.406685
21577.1484	-64.252853
21580.0781	-64.099480
21583.0078	-63.961311
21585.9375	-63.828926
21588.8672	-63.696060
21591.7969	-63.554966
21594.7266	-63.405422
21597.6562	-63.257320
21600.5859	-63.111420
21603.5156	-62.949890
21606.4453	-62.775440
21609.3750	-62.593147
21612.3047	-62.410248
21615.2344	-62.234734
21618.1641	-62.058224
21621.0938	-61.868252
21624.0234	-61.667175
21626.9531	-61.474083
21629.8828	-61.276901
21632.8125	-61.061165
21635.7422	-60.844517
21638.6719	-60.632057
21641.6016	-60.416050
21644.5312	-60.190075
21647.4609	-59.951714
21650.3906	-59.717869
21653.3203	-59.493755
21656.2500	-59.271442
21659.1797	-59.049728
21662.1094	-58.824684
21665.0391	-58.599449
21667.9688	-58.364639
21670.8984	-58.113194
21673.8281	-57.859482
21676.7578	-57.590584
21679.6875	-57.291965
21682.6172	-56.972095
21685.5469	-56.641327
21688.4766	-56.316578
21691.4062	-55.994225
21694.3359	-55.649521
21697.2656	-55.265186
21700.1953	-54.885345
21703.1250	-54.536064
21706.0547	-54.162270
21708.9844	-53.755722
21711.9141	-53.342247
21714.8438	-52.920258
21717.7734	-52.484875
21720.7031	-52.038685
21723.6328	-51.576923
21726.5625	-51.088017
21729.4922	-50.578472
21732.4219	-50.054123
21735.3516	-49.513481
21738.2812	-48.954632
21741.2109	-48.389332
21744.1406	-47.818066
21747.0703	-47.236122
21750.0000	-46.674061
21752.9297	-46.163952
21755.8594	-45.717854
21758.7891	-45.355602
21761.7188	-45.117390
21764.6484	-45.026070
21767.5781	-45.080307
21770.5078	-45.276569
21773.4375	-45.592270
21776.3672	-45.998417
21779.2969	-46.480270
21782.2266	-47.009895
21785.1562	-47.561165
21788.0859	-48.119026
21791.0156	-48.677559
21793.9453	-49.230331
21796.8750	-49.769485
21799.8047	-50.293343
21802.7344	-50.783482
21805.6641	-51.247829
21808.5938	-51.706066
21811.5234	-52.160694
21814.4531	-52.602280
21817.3828	-53.017487
21820.3125	-53.415840
21823.2422	-53.805553
21826.1719	-54.177376
21829.1016	-54.530605
21832.0312	-54.872055
21834.9609	-55.204727
21837.8906	-55.526043
21840.8203	-55.830116
21843.7500	-56.127995
21846.6797	-56.415104
21849.6094	-56.681431
21852.5391	-56.936157
21855.4688	-57.190220
21858.3984	-57.444195
21861.3281	-57.688187
21864.2578	-57.920994
21867.1875	-58.148006
21870.1172	-58.377762
21873.0469	-58.598476
21875.9766	-58.796894
21878.9062	-58.995792
21881.8359	-59.198711
21884.7656	-59.385067
21887.6953	-59.565403
21890.6250	-59.763031
21893.5547	-59.958416
21896.4844	-60.127354
21899.4141	-60.293629
21902.3438	-60.472939
21905.2734	-60.654148
21908.2031	-60.830269
21911.1328	-60.999062
21914.0625	-61.165745
21916.9922	-61.326962
21919.9219	-61.485195
21922.8516	-61.647655
21925.7812	-61.805958
21928.7109	-61.957668
21931.6406	-62.110073
21934.5703	-62.254471
21937.5000	-62.382416
21940.4297	-62.518108
21943.3594	-62.665134
21946.2891	-62.790577
21949.2188	-62.905354
21952.1484	-63.033382
21955.0781	-63.163292
21958.0078	-63.288292
21960.9375	-63.411644
21963.8672	-63.528141
21966.7969	-63.636543
21969.7266	-63.744801
21972.6562	-63.851208
21975.5859	-63.952084
21978.5156	-64.052910
21981.4453	-64.155769
21984.3750	-64.253548
21987.3047	-64.347572
21990.2344	-64.444992
21993.1641	-64.541710
21996.0938	-64.640610
21999.0234	-64.744659
22001.9531	-64.843224
22004.8828	-64.940140
22007.8125	-65.038193
22010.7422	-65.135086
22013.6719	-65.237289
22016.6016	-65.339821
22019.5312	-65.433960
22022.4609	-65.527168
22025.3906	-65.619225
22028.3203	-65.704742
22031.2500	-65.786385
22034.1797	-65.860283
22037.1094	-65.933914
22040.0391	-66.015900
22042.9688	-66.099022
22045.8984	-66.181343
22048.8281	-66.263954
22051.7578	-66.351837
22054.6875	-66.444008
22057.6172	-66.531670
22060.5469	-66.610779
22063.4766	-66.686920
22066.4062	-66.762856
22069.3359	-66.832466
22072.2656	-66.905579
22075.1953	-66.987251
22078.1250	-67.058456
22081.0547	-67.122055
22083.9844	-67.207428
22086.9141	-67.298965
22089.8438	-67.364906
22092.7734	-67.420403
22095.7031	-67.503654
22098.6328	-67.598572
22101.5625	-67.662148
22104.4922	-67.715630
22107.4219	-67.794533
22110.3516	-67.888748
22113.2812	-67.961464
22116.2109	-68.019318
22119.1406	-68.074135
22122.0703	-68.128975
22125.0000	-68.184708
22127.9297	-68.238792
22130.8594	-68.294220
22133.7891	-68.350510
22136.7188	-68.404900
22139.6484	-68.459167
22142.5781	-68.512054
22145.5078	-68.557953
22148.4375	-68.601738
22151.3672	-68.666733
22154.2969	-68.743950
22157.2266	-68.804222
22160.1562	-68.851883
22163.0859	-68.896492
22166.0156	-68.950043
22168.9453	-69.004112
22171.8750	-69.051636
22174.8047	-69.099716
22177.7344	-69.157394
22180.6641	-69.226921
22183.5938	-69.285049
22186.5234	-69.320641
22189.4531	-69.362671
22192.3828	-69.423607
22195.3125	-69.481400
22198.2422	-69.544571
22201.1719	-69.608734
22204.1016	-69.652916
22207.0312	-69.695396
22209.9609	-69.741371
22212.8906	-69.781158
22215.8203	-69.817665
22218.7500	-69.859131
22221.6797	-69.912872
22224.6094	-69.970009
22227.5391	-70.019691
22230.4688	-70.067284
22233.3984	-70.107513
22236.3281	-70.141479
22239.2578	-70.189453
22242.1875	-70.249992
22245.1172	-70.309776
22248.0469	-70.360840
22250.9766	-70.409607
22253.9062	-70.460869
22256.8359	-70.501862
22259.7656	-70.541855
22262.6953	-70.591888
22265.6250	-70.644249
22268.5547	-70.698921
22271.4844	-70.756081
22274.4141	-70.801094
22277.3438	-70.831337
22280.2734	-70.866653
22283.2031	-70.915115
22286.1328	-70.974739
22289.0625	-71.026123
22291.9922	-71.067719
22294.9219	-71.106354
22297.8516	-71.127762
22300.7812	-71.141373
22303.7109	-71.177628
22306.6406	-71.216698
22309.5703	-71.251823
22312.5000	-71.291031
22315.4297	-71.320175
22318.3594	-71.341171
22321.2891	-71.372597
22324.2188	-71.413185
22327.1484	-71.448151
22330.0781	-71.480339
22333.0078	-71.517159
22335.9375	-71.556313
22338.8672	-71.590790
22341.7969	-71.620651
22344.7266	-71.652710
22347.6562	-71.690208
22350.5859	-71.724251
22353.5156	-71.751305
22356.4453	-71.791801
22359.3750	-71.833534
22362.3047	-71.855812
22365.2344	-71.877602
22368.1641	-71.911057
22371.0938	-71.947952
22374.0234	-71.988701
22376.9531	-72.031731
22379.8828	-72.063538
22382.8125	-72.087212
22385.7422	-72.121681
22388.6719	-72.158157
22391.6016	-72.181923
22394.5312	-72.206207
22397.4609	-72.235199
22400.3906	-72.272202
22403.3203	-72.313934
22406.2500	-72.349495
22409.1797	-72.379044
22412.1094	-72.400406
22415.0391	-72.428360
22417.9688	-72.470520
22420.8984	-72.509697
22423.8281	-72.542702
22426.7578	-72.573822
22429.6875	-72.609032
22432.6172	-72.646187
22435.5469	-72.684868
22438.4766	-72.725372
22441.4062	-72.757874
22444.3359	-72.785515
22447.2656	-72.805351
22450.1953	-72.837212
22453.1250	-72.884644
22456.0547	-72.912292
22458.9844	-72.939606
22461.9141	-72.978882
22464.8438	-73.003822
22467.7734	-73.022789
22470.7031	-73.043266
22473.6328	-73.069580
22476.5625	-73.098915
22479.4922	-73.127457
22482.4219	-73.144478
22485.3516	-73.163925
22488.2812	-73.206566
22491.2109	-73.243256
22494.1406	-73.253586
22497.0703	-73.259674
22500.0000	-73.282158
22502.9297	-73.319229
22505.8594	-73.348022
22508.7891	-73.373932
22511.7188	-73.402473
22514.6484	-73.423080
22517.5781	-73.447655
22520.5078	-73.480263
22523.4375	-73.510208
22526.3672	-73.536812
22529.2969	-73.570030
22532.2266	-73.599091
22535.1562	-73.614403
22538.0859	-73.629250
22541.0156	-73.652832
22543.9453	-73.685524
22546.8750	-73.716606
22549.8047	-73.745651
22552.7344	-73.774048
22555.6641	-73.792458
22558.5938	-73.815048
22561.5234	-73.853119
22564.4531	-73.888329
22567.3828	-73.906067
22570.3125	-73.921318
22573.2422	-73.952347
22576.1719	-73.988266
22579.1016	-74.014244
22582.0312	-74.033653
22584.9609	-74.062691
22587.8906	-74.105530
22590.8203	-74.146255
22593.7500	-74.168381
22596.6797	-74.184158
22599.6094	-74.210854
22602.5391	-74.232399
22605.4688	-74.254181
22608.3984	-74.289078
22611.3281	-74.320145
22614.2578	-74.349777
22617.1875	-74.374557
22620.1172	-74.391663
22623.0469	-74.426926
22625.9766	-74.464340
22628.9062	-74.487885
22631.8359	-74.515511
22634.7656	-74.533669
22637.6953	-74.546715
22640.6250	-74.568832
22643.5547	-74.594376
22646.4844	-74.613892
22649.4141	-74.630554
22652.3438	-74.649559
22655.2734	-74.669228
22658.2031	-74.688828
22661.1328	-74.711647
22664.0625	-74.727646
22666.9922	-74.739754
22669.9219	-74.759796
22672.8516	-74.776245
22675.7812	-74.796188
22678.7109	-74.817322
22681.6406	-74.825821
22684.5703	-74.845139
22687.5000	-74.879440
22690.4297	-74.904297
22693.3594	-74.924065
22696.2891	-74.931374
22699.2188	-74.929100
22702.1484	-74.965134
22705.0781	-75.014198
22708.0078	-75.034119
22710.9375	-75.044502
22713.8672	-75.073769
22716.7969	-75.107422
22719.7266	-75.119690
22722.6562	-75.132706
22725.5859	-75.157326
22728.5156	-75.181129
22731.4453	-75.201813
22734.3750	-75.221176
22737.3047	-75.243645
22740.2344	-75.267517
22743.1641	-75.288422
22746.0938	-75.305145
22749.0234	-75.319672
22751.9531	-75.341820
22754.8828	-75.364662
22757.8125	-75.389252
22760.7422	-75.423080
22763.6719	-75.446655
22766.6016	-75.464905
22769.5312	-75.498627
22772.4609	-75.533234
22775.3906	-75.551094
22778.3203	-75.568596
22781.2500	-75.605965
22784.1797	-75.631554
22787.1094	-75.636894
22790.0391	-75.658348
22792.9688	-75.686172
22795.8984	-75.711281
22798.8281	-75.746780
22801.7578	-75.767174
22804.6875	-75.772743
22807.6172	-75.777885
22810.5469	-75.780403
22813.4766	-75.798698
22816.4062	-75.828865
22819.3359	-75.840790
22822.2656	-75.851112
22825.1953	-75.880692
22828.1250	-75.908112
22831.0547	-75.919853
22833.9844	-75.926819
22836.9141	-75.922348
22839.8438	-75.927650
22842.7734	-75.959747
22845.7031	-75.982750
22848.6328	-75.987389
22851.5625	-75.996956
22854.4922	-76.019211
22857.4219	-76.048927
22860.3516	-76.067970
22863.2812	-76.074226
22866.2109	-76.088058
22869.1406	-76.103233
22872.0703	-76.115532
22875.0000	-76.134529
22877.9297	-76.157028
22880.8594	-76.175941
22883.7891	-76.192856
22886.7188	-76.206917
22889.6484	-76.222931
22892.5781	-76.247108
22895.5078	-76.273026
22898.4375	-76.300911
22901.3672	-76.313004
22904.2969	-76.315186
22907.2266	-76.329559
22910.1562	-76.341278
22913.0859	-76.364731
22916.0156	-76.397820
22918.9453	-76.415680
22921.8750	-76.433746
22924.8047	-76.456589
22927.7344	-76.473846
22930.6641	-76.486641
22933.5938	-76.490654
22936.5234	-76.502296
22939.4531	-76.532661
22942.3828	-76.553207
22945.3125	-76.577049
22948.2422	-76.622383
22951.1719	-76.646935
22954.1016	-76.641518
22957.0312	-76.649384
22959.9609	-76.679771
22962.8906	-76.711151
22965.8203	-76.730042
22968.7500	-76.755531
22971.6797	-76.788109
22974.6094	-76.818024
22977.5391	-76.840240
22980.4688	-76.839294
22983.3984	-76.838409
22986.3281	-76.857300
22989.2578	-76.874802
22992.1875	-76.878662
22995.1172	-76.885323
22998.0469	-76.912598
23000.9766	-76.924820
23003.9062	-76.917404
23006.8359	-76.918205
23009.7656	-76.923912
23012.6953	-76.940498
23015.6250	-76.958595
23018.5547	-76.972206
23021.4844	-76.989891
23024.4141	-77.003212
23027.3438	-77.015862
23030.2734	-77.032387
23033.2031	-77.043594
23036.1328	-77.068710
23039.0625	-77.101295
23041.9922	-77.110985
23044.9219	-77.097771
23047.8516	-77.085686
23050.7812	-77.111671
23053.7109	-77.151047
23056.6406	-77.165474
23059.5703	-77.179268
23062.5000	-77.202370
23065.4297	-77.226517
23068.3594	-77.251244
23071.2891	-77.263626
23074.2188	-77.263565
23077.1484	-77.267014
23080.0781	-77.288277
23083.0078	-77.312965
23085.9375	-77.320023
23088.8672	-77.324623
23091.7969	-77.341301
23094.7266	-77.356216
23097.6562	-77.370766
23100.5859	-77.390572
23103.5156	-77.410484
23106.4453	-77.443077
23109.3750	-77.463623
23112.3047	-77.470116
23115.2344	-77.483513
23118.1641	-77.494537
23121.0938	-77.516510
23124.0234	-77.542061
23126.9531	-77.558319
23129.8828	-77.576729
23132.8125	-77.590431
23135.7422	-77.601158
23138.6719	-77.623070
23141.6016	-77.657455
23144.5312	-77.687698
23147.4609	-77.706360
23150.3906	-77.721619
23153.3203	-77.721344
23156.2500	-77.728752
23159.1797	-77.740463
23162.1094	-77.736031
23165.0391	-77.745651
23167.9688	-77.768646
23170.8984	-77.784294
23173.8281	-77.793808
23176.7578	-77.790001
23179.6875	-77.794296
23182.6172	-77.809128
23185.5469	-77.823921
23188.4766	-77.844612
23191.4062	-77.864532
23194.3359	-77.870522
23197.2656	-77.859848
23200.1953	-77.875107
23203.1250	-77.914230
23206.0547	-77.938576
23208.9844	-77.948463
23211.9141	-77.953651
23214.8438	-77.957588
23217.7734	-77.958656
23220.7031	-77.971054
23223.6328	-77.992569
23226.5625	-78.005371
23229.4922	-78.016685
23232.4219	-78.036606
23235.3516	-78.056969
23238.2812	-78.066826
23241.2109	-78.072441
23244.1406	-78.085632
23247.0703	-78.117104
23250.0000	-78.145081
23252.9297	-78.141869
23255.8594	-78.151230
23258.7891	-78.173538
23261.7188	-78.176773
23264.6484	-78.185997
23267.5781	-78.204689
23270.5078	-78.224625
23273.4375	-78.245621
23276.3672	-78.264099
23279.2969	-78.269943
23282.2266	-78.264526
23285.1562	-78.284126
23288.0859	-78.323120
23291.0156	-78.344681
23293.9453	-78.335220
23296.8750	-78.322693
23299.8047	-78.345291
23302.7344	-78.386208
23305.6641	-78.415413
23308.5938	-78.433907
23311.5234	-78.454407
23314.4531	-78.474464
23317.3828	-78.493195
23320.3125	-78.521301
23323.2422	-78.533730
23326.1719	-78.523300
23329.1016	-78.519409
23332.0312	-78.528938
23334.9609	-78.536613
23337.8906	-78.536324
23340.8203	-78.542320
23343.7500	-78.572029
23346.6797	-78.606445
23349.6094	-78.624718
23352.5391	-78.628204
23355.4688	-78.627968
23358.3984	-78.630577
23361.3281	-78.645882
23364.2578	-78.668900
23367.1875	-78.679489
23370.1172	-78.680466
23373.0469	-78.682343
23375.9766	-78.691124
23378.9062	-78.701843
23381.8359	-78.719131
23384.7656	-78.729790
23387.6953	-78.727188
23390.6250	-78.737877
23393.5547	-78.752724
23396.4844	-78.763580
23399.4141	-78.781311
23402.3438	-78.800735
23405.2734	-78.810188
23408.2031	-78.808754
23411.1328	-78.822212
23414.0625	-78.843369
23416.9922	-78.854286
23419.9219	-78.874321
23422.8516	-78.898941
23425.7812	-78.906776
23428.7109	-78.914246
23431.6406	-78.948044
23434.5703	-78.975464
23437.5000	-78.968544
23440.4297	-78.962227
23443.3594	-78.970161
23446.2891	-78.995422
23449.2188	-79.049988
23452.1484	-79.075432
23455.0781	-79.061714
23458.0078	-79.063553
23460.9375	-79.078621
23463.8672	-79.101166
23466.7969	-79.126503
23469.7266	-79.144905
23472.6562	-79.164383
23475.5859	-79.180969
23478.5156	-79.202377
23481.4453	-79.228745
23484.3750	-79.243362
23487.3047	-79.255127
23490.2344	-79.271568
23493.1641	-79.294373
23496.0938	-79.310257
23499.0234	-79.325722
23501.9531	-79.332878
23504.8828	-79.328773
23507.8125	-79.324554
23510.7422	-79.321762
23513.6719	-79.328506
23516.6016	-79.348160
23519.5312	-79.368301
23522.4609	-79.374962
23525.3906	-79.376923
23528.3203	-79.383110
23531.2500	-79.394836
23534.1797	-79.408287
23537.1094	-79.416702
23540.0391	-79.428932
23542.9688	-79.454147
23545.8984	-79.451180
23548.8281	-79.420357
23551.7578	-79.438568
23554.6875	-79.483810
23557.6172	-79.514397
23560.5469	-79.527985
23563.4766	-79.529289
23566.4062	-79.530220
23569.3359	-79.532845
23572.2656	-79.548111
23575.1953	-79.565376
23578.1250	-79.581772
23581.0547	-79.614258
23583.9844	-79.642517
23586.9141	-79.645966
23589.8438	-79.644180
23592.7734	-79.656212
23595.7031	-79.673515
23598.6328	-79.695244
23601.5625	-79.724014
23604.4922	-79.726814
23607.4219	-79.719597
23610.3516	-79.748024
23613.2812	-79.780846
23616.2109	-79.788818
23619.1406	-79.794861
23622.0703	-79.805183
23625.0000	-79.823982
23627.9297	-79.850357
23630.8594	-79.878136
23633.7891	-79.900352
23636.7188	-79.918961
23639.6484	-79.943382
23642.5781	-79.943054
23645.5078	-79.950592
23648.4375	-80.011841
23651.3672	-80.036346
23654.2969	-80.010010
23657.2266	-80.014069
23660.1562	-80.042732
23663.0859	-80.076004
23666.0156	-80.110374
23668.9453	-80.144508
23671.8750	-80.163460
23674.8047	-80.175385
23677.7344	-80.189255
23680.6641	-80.197556
23683.5938	-80.219872
